#
# Source: https://hallcweb.jlab.org/resdata/database/
# SLAC experiment e8920 hydrogen, with Whitlow normalization 0.953. 
# Uncertainties shown are statistical only. 
# At least 5% systematic uncertainties are estimated, but not reflected in this data set.
#
# E      EP       Theta       Q^2           W^2       Nu       Epsilon    Gamma         x        Sigma         Uncertainty
# (Gev)  (Gev)    (degrees)   ((Gev/c)^2)   (Gev^2)   (Gev)                                      (nb/Ser*Gev)
#
7.000    6.563    6.000       0.503         1.197     0.437    0.992      1.544e-002    0.614    1.160e+003    4.806e+002    
7.000    6.517    6.000       0.500         1.286     0.483    0.992      1.862e-002    0.551    2.473e+003    5.188e+002    
7.000    6.494    6.000       0.498         1.332     0.506    0.992      2.008e-002    0.525    3.315e+003    2.393e+002    
7.000    6.470    6.000       0.496         1.378     0.530    0.991      2.142e-002    0.499    5.236e+003    2.391e+002    
7.000    6.446    6.000       0.494         1.426     0.554    0.991      2.268e-002    0.476    8.230e+003    2.798e+002    
7.000    6.421    6.000       0.492         1.474     0.579    0.991      2.381e-002    0.453    9.987e+003    2.955e+002    
7.000    6.396    6.000       0.491         1.523     0.604    0.991      2.485e-002    0.433    9.314e+003    2.708e+002    
7.000    6.371    6.000       0.489         1.573     0.629    0.990      2.581e-002    0.414    7.355e+003    2.318e+002    
7.000    6.345    6.000       0.487         1.623     0.655    0.990      2.665e-002    0.396    6.044e+003    2.051e+002    
7.000    6.319    6.000       0.485         1.674     0.681    0.989      2.740e-002    0.379    5.170e+003    1.854e+002    
7.000    6.293    6.000       0.483         1.727     0.707    0.989      2.809e-002    0.364    4.802e+003    1.945e+002    
7.000    6.266    6.000       0.481         1.777     0.734    0.988      2.857e-002    0.349    4.049e+003    4.558e+002    
7.000    6.124    6.000       0.470         2.053     0.876    0.986      3.019e-002    0.286    2.961e+003    4.586e+002    
7.000    6.095    6.000       0.467         2.111     0.905    0.985      3.033e-002    0.275    3.646e+003    1.094e+002    
7.000    6.065    6.000       0.465         2.170     0.935    0.984      3.039e-002    0.265    4.154e+003    9.766e+001    
7.000    6.035    6.000       0.463         2.229     0.965    0.984      3.041e-002    0.256    5.031e+003    1.071e+002    
7.000    6.004    6.000       0.460         2.289     0.996    0.983      3.036e-002    0.246    5.066e+003    1.053e+002    
7.000    5.973    6.000       0.458         2.350     1.027    0.982      3.028e-002    0.238    4.723e+003    9.692e+001    
7.000    5.941    6.000       0.456         2.412     1.059    0.981      3.012e-002    0.229    4.272e+003    9.021e+001    
7.000    5.909    6.000       0.453         2.474     1.091    0.980      2.995e-002    0.221    3.932e+003    9.080e+001    
7.000    5.877    6.000       0.451         2.538     1.123    0.980      2.976e-002    0.214    3.340e+003    2.202e+002    
7.000    5.709    6.000       0.438         2.863     1.291    0.974      2.829e-002    0.181    5.149e+003    9.511e+002    
7.000    5.675    6.000       0.435         2.931     1.325    0.973      2.797e-002    0.175    3.569e+003    9.857e+001    
7.000    5.639    6.000       0.432         3.000     1.361    0.972      2.758e-002    0.169    3.246e+003    7.735e+001    
7.000    5.604    6.000       0.430         3.070     1.396    0.970      2.723e-002    0.164    3.084e+003    7.439e+001    
7.000    5.568    6.000       0.427         3.140     1.432    0.969      2.685e-002    0.159    2.897e+003    7.117e+001    
7.000    5.531    6.000       0.424         3.211     1.469    0.968      2.644e-002    0.154    2.813e+003    7.008e+001    
7.000    5.495    6.000       0.421         3.283     1.505    0.966      2.607e-002    0.149    2.930e+003    8.509e+001    
7.000    5.457    6.000       0.419         3.356     1.543    0.965      2.564e-002    0.145    2.629e+003    1.223e+003    
7.000    5.225    6.000       0.401         3.810     1.775    0.954      2.317e-002    0.120    2.347e+003    4.362e+002    
7.000    5.185    6.000       0.398         3.889     1.815    0.951      2.276e-002    0.117    2.176e+003    4.603e+001    
7.000    5.145    6.000       0.395         3.968     1.855    0.949      2.236e-002    0.113    2.119e+003    4.006e+001    
13.500   12.352   6.000       1.827         1.208     1.148    0.991      3.449e-003    0.848    2.202e+001    9.781e+000    
13.500   12.331   6.000       1.824         1.252     1.169    0.990      3.855e-003    0.831    5.220e+001    8.150e+000    
13.500   12.308   6.000       1.820         1.295     1.192    0.990      4.225e-003    0.814    6.790e+001    7.301e+000    
13.500   12.286   6.000       1.817         1.341     1.214    0.990      4.614e-003    0.798    1.482e+002    8.745e+000    
13.500   12.263   6.000       1.814         1.388     1.237    0.990      4.993e-003    0.781    2.054e+002    9.530e+000    
13.500   12.240   6.000       1.810         1.435     1.260    0.990      5.365e-003    0.766    3.031e+002    1.092e+001    
13.500   12.216   6.000       1.807         1.484     1.284    0.990      5.725e-003    0.750    3.353e+002    1.113e+001    
13.500   12.192   6.000       1.803         1.533     1.308    0.989      6.077e-003    0.735    3.214e+002    1.045e+001    
13.500   12.167   6.000       1.800         1.580     1.333    0.989      6.394e-003    0.719    2.930e+002    9.711e+000    
13.500   12.143   6.000       1.796         1.631     1.357    0.989      6.730e-003    0.705    2.549e+002    8.776e+000    
13.500   12.117   6.000       1.792         1.682     1.383    0.989      7.047e-003    0.691    2.445e+002    8.415e+000    
13.500   12.092   6.000       1.789         1.734     1.408    0.989      7.362e-003    0.677    2.429e+002    8.268e+000    
13.500   12.066   6.000       1.785         1.788     1.434    0.988      7.662e-003    0.663    2.439e+002    7.846e+000    
13.500   12.039   6.000       1.781         1.841     1.461    0.988      7.947e-003    0.649    2.378e+002    7.217e+000    
13.500   12.012   6.000       1.777         1.896     1.488    0.988      8.224e-003    0.636    2.537e+002    6.860e+000    
13.500   11.985   6.000       1.773         1.952     1.515    0.988      8.492e-003    0.624    2.607e+002    6.812e+000    
13.500   11.957   6.000       1.769         2.008     1.543    0.987      8.744e-003    0.611    2.730e+002    7.228e+000    
13.500   11.929   6.000       1.764         2.062     1.571    0.987      8.967e-003    0.598    2.776e+002    8.237e+000    
13.500   11.901   6.000       1.760         2.120     1.599    0.987      9.202e-003    0.587    3.392e+002    1.046e+001    
13.500   11.872   6.000       1.756         2.179     1.628    0.986      9.422e-003    0.575    3.893e+002    1.199e+001    
13.500   11.843   6.000       1.752         2.238     1.657    0.986      9.634e-003    0.563    4.605e+002    1.307e+001    
13.500   11.813   6.000       1.747         2.298     1.687    0.986      9.829e-003    0.552    4.512e+002    1.276e+001    
13.500   11.783   6.000       1.743         2.359     1.717    0.985      1.002e-002    0.541    4.100e+002    1.164e+001    
13.500   11.753   6.000       1.738         2.421     1.747    0.985      1.020e-002    0.530    3.887e+002    1.113e+001    
13.500   11.722   6.000       1.734         2.484     1.778    0.985      1.036e-002    0.520    3.484e+002    1.036e+001    
13.500   11.691   6.000       1.729         2.547     1.809    0.984      1.052e-002    0.509    3.578e+002    1.045e+001    
13.500   11.659   6.000       1.724         2.611     1.841    0.984      1.066e-002    0.499    3.656e+002    1.022e+001    
13.500   11.627   6.000       1.720         2.673     1.873    0.984      1.077e-002    0.489    3.980e+002    1.035e+001    
13.500   11.595   6.000       1.715         2.739     1.905    0.983      1.090e-002    0.480    4.372e+002    1.043e+001    
13.500   11.562   6.000       1.710         2.806     1.938    0.983      1.101e-002    0.470    4.906e+002    1.090e+001    
13.500   11.529   6.000       1.705         2.873     1.971    0.982      1.112e-002    0.461    4.998e+002    1.124e+001    
13.500   11.495   6.000       1.700         2.941     2.005    0.982      1.121e-002    0.452    4.780e+002    1.076e+001    
13.500   11.462   6.000       1.695         3.010     2.038    0.981      1.130e-002    0.443    4.843e+002    1.049e+001    
13.500   11.427   6.000       1.690         3.080     2.073    0.981      1.137e-002    0.434    4.417e+002    9.939e+000    
13.500   11.392   6.000       1.685         3.151     2.108    0.980      1.144e-002    0.426    4.361e+002    9.735e+000    
13.500   11.357   6.000       1.680         3.222     2.143    0.980      1.150e-002    0.418    4.223e+002    9.561e+000    
13.500   11.322   6.000       1.675         3.294     2.178    0.979      1.155e-002    0.410    4.266e+002    9.463e+000    
13.500   11.286   6.000       1.669         3.367     2.214    0.979      1.159e-002    0.402    4.450e+002    9.674e+000    
13.500   11.250   6.000       1.664         3.441     2.250    0.978      1.163e-002    0.394    4.529e+002    1.090e+001    
13.500   11.213   6.000       1.659         3.516     2.287    0.978      1.166e-002    0.386    4.690e+002    1.433e+001    
13.500   11.176   6.000       1.653         3.591     2.324    0.977      1.168e-002    0.379    4.658e+002    2.291e+001    
13.500   11.138   6.000       1.647         3.663     2.362    0.976      1.167e-002    0.372    4.257e+002    1.961e+001    
13.500   11.100   6.000       1.642         3.740     2.400    0.976      1.168e-002    0.365    4.107e+002    1.494e+001    
13.500   11.062   6.000       1.636         3.818     2.438    0.975      1.168e-002    0.358    4.386e+002    1.473e+001    
13.500   11.023   6.000       1.630         3.897     2.477    0.975      1.167e-002    0.351    4.570e+002    1.489e+001    
13.500   10.984   6.000       1.625         3.976     2.516    0.974      1.166e-002    0.344    4.496e+002    1.463e+001    
16.000   14.472   6.000       2.537         1.210     1.528    0.990      2.218e-003    0.885    6.660e+000    1.393e+000    
16.000   14.451   6.000       2.533         1.254     1.549    0.989      2.483e-003    0.871    1.062e+001    1.267e+000    
16.000   14.429   6.000       2.529         1.300     1.571    0.989      2.743e-003    0.858    2.299e+001    1.366e+000    
16.000   14.407   6.000       2.526         1.346     1.593    0.989      3.000e-003    0.845    3.566e+001    1.497e+000    
16.000   14.384   6.000       2.522         1.392     1.616    0.989      3.253e-003    0.831    5.459e+001    1.736e+000    
16.000   14.361   6.000       2.517         1.438     1.639    0.989      3.487e-003    0.818    7.730e+001    1.997e+000    
16.000   14.338   6.000       2.513         1.486     1.662    0.989      3.732e-003    0.806    9.407e+001    2.181e+000    
16.000   14.314   6.000       2.509         1.535     1.686    0.988      3.972e-003    0.793    9.797e+001    2.226e+000    
16.000   14.290   6.000       2.505         1.585     1.710    0.988      4.208e-003    0.781    9.308e+001    2.216e+000    
16.000   14.265   6.000       2.501         1.636     1.735    0.988      4.437e-003    0.768    8.945e+001    2.134e+000    
16.000   14.240   6.000       2.496         1.687     1.760    0.988      4.662e-003    0.756    8.532e+001    2.025e+000    
16.000   14.215   6.000       2.492         1.737     1.785    0.988      4.869e-003    0.744    8.769e+001    1.995e+000    
16.000   14.189   6.000       2.487         1.790     1.811    0.987      5.083e-003    0.732    9.131e+001    1.996e+000    
16.000   14.163   6.000       2.483         1.844     1.837    0.987      5.292e-003    0.720    9.340e+001    1.988e+000    
16.000   14.137   6.000       2.478         1.899     1.863    0.987      5.498e-003    0.709    9.397e+001    2.036e+000    
16.000   14.110   6.000       2.473         1.954     1.890    0.987      5.695e-003    0.697    9.459e+001    2.170e+000    
16.000   14.082   6.000       2.469         2.011     1.918    0.987      5.885e-003    0.686    1.042e+002    2.487e+000    
16.000   14.055   6.000       2.464         2.068     1.945    0.986      6.073e-003    0.675    1.108e+002    2.883e+000    
16.000   14.027   6.000       2.459         2.126     1.973    0.986      6.254e-003    0.664    1.279e+002    3.698e+000    
16.000   13.998   6.000       2.454         2.182     2.002    0.986      6.411e-003    0.653    1.415e+002    5.389e+000    
16.000   13.970   6.000       2.449         2.241     2.030    0.985      6.582e-003    0.643    1.597e+002    6.297e+000    
16.000   13.940   6.000       2.444         2.301     2.060    0.985      6.740e-003    0.632    1.777e+002    6.139e+000    
16.000   13.911   6.000       2.439         2.362     2.089    0.985      6.899e-003    0.622    1.786e+002    5.810e+000    
16.000   13.881   6.000       2.433         2.424     2.119    0.985      7.048e-003    0.612    1.465e+002    5.180e+000    
16.000   13.850   6.000       2.428         2.487     2.150    0.984      7.188e-003    0.602    1.459e+002    5.288e+000    
16.000   13.820   6.000       2.423         2.550     2.180    0.984      7.329e-003    0.592    1.422e+002    5.439e+000    
16.000   13.788   6.000       2.417         2.615     2.212    0.984      7.456e-003    0.582    1.469e+002    5.882e+000    
16.000   13.757   6.000       2.412         2.680     2.243    0.983      7.583e-003    0.573    1.553e+002    6.606e+000    
16.000   13.725   6.000       2.406         2.742     2.275    0.983      7.688e-003    0.564    1.718e+002    7.558e+000    
16.000   13.693   6.000       2.400         2.809     2.307    0.983      7.802e-003    0.554    2.147e+002    8.630e+000    
16.000   13.660   6.000       2.395         2.876     2.340    0.982      7.907e-003    0.545    2.295e+002    8.900e+000    
16.000   13.627   6.000       2.389         2.945     2.373    0.982      8.009e-003    0.536    2.260e+002    8.633e+000    
16.000   13.593   6.000       2.383         3.014     2.407    0.981      8.101e-003    0.528    2.176e+002    8.472e+000    
16.000   13.559   6.000       2.377         3.084     2.441    0.981      8.190e-003    0.519    2.134e+002    9.278e+000    
16.000   13.525   6.000       2.371         3.154     2.475    0.981      8.275e-003    0.510    1.950e+002    1.049e+001    
16.000   13.490   6.000       2.365         3.226     2.510    0.980      8.351e-003    0.502    2.002e+002    1.430e+001    
16.000   13.455   6.000       2.359         3.298     2.545    0.980      8.423e-003    0.494    1.978e+002    3.527e+001    
16.000   13.384   6.000       2.346         3.445     2.616    0.979      8.553e-003    0.478    2.086e+002    4.032e+001    
16.000   13.348   6.000       2.340         3.519     2.652    0.978      8.611e-003    0.470    2.134e+002    1.977e+001    
16.000   13.311   6.000       2.333         3.591     2.689    0.978      8.648e-003    0.462    2.109e+002    1.419e+001    
16.000   13.274   6.000       2.327         3.667     2.726    0.977      8.695e-003    0.455    2.103e+002    1.141e+001    
16.000   13.237   6.000       2.320         3.744     2.763    0.977      8.739e-003    0.448    2.093e+002    1.017e+001    
16.000   13.199   6.000       2.314         3.822     2.801    0.976      8.775e-003    0.440    2.074e+002    1.005e+001    
16.000   13.161   6.000       2.307         3.901     2.839    0.976      8.808e-003    0.433    2.103e+002    1.009e+001    
16.000   13.122   6.000       2.300         3.980     2.878    0.975      8.834e-003    0.426    2.203e+002    1.020e+001    
19.500   17.346   6.000       3.706         1.217     2.154    0.988      1.301e-003    0.917    1.511e+000    3.858e-001    
19.500   17.325   6.000       3.701         1.261     2.175    0.988      1.457e-003    0.907    2.863e+000    3.435e-001    
19.500   17.304   6.000       3.697         1.304     2.196    0.987      1.603e-003    0.897    4.629e+000    3.483e-001    
19.500   17.282   6.000       3.692         1.350     2.218    0.987      1.757e-003    0.887    6.593e+000    3.618e-001    
19.500   17.260   6.000       3.688         1.397     2.240    0.987      1.909e-003    0.877    1.065e+001    4.137e-001    
19.500   17.237   6.000       3.683         1.445     2.263    0.987      2.060e-003    0.867    1.481e+001    4.620e-001    
19.500   17.214   6.000       3.678         1.491     2.286    0.987      2.200e-003    0.857    1.776e+001    4.978e-001    
19.500   17.191   6.000       3.673         1.540     2.309    0.987      2.348e-003    0.848    1.884e+001    5.042e-001    
19.500   17.167   6.000       3.668         1.590     2.333    0.987      2.494e-003    0.838    1.989e+001    5.152e-001    
19.500   17.143   6.000       3.663         1.641     2.357    0.986      2.638e-003    0.828    1.991e+001    5.173e-001    
19.500   17.119   6.000       3.657         1.693     2.381    0.986      2.781e-003    0.819    2.126e+001    5.446e-001    
19.500   17.094   6.000       3.652         1.742     2.406    0.986      2.912e-003    0.809    2.040e+001    5.484e-001    
19.500   17.069   6.000       3.647         1.796     2.431    0.986      3.050e-003    0.799    2.141e+001    5.818e-001    
19.500   17.043   6.000       3.641         1.850     2.457    0.986      3.186e-003    0.790    2.248e+001    5.932e-001    
19.500   17.017   6.000       3.636         1.904     2.483    0.985      3.319e-003    0.780    2.462e+001    6.019e-001    
19.500   16.991   6.000       3.630         1.960     2.509    0.985      3.451e-003    0.771    2.577e+001    6.038e-001    
19.500   16.964   6.000       3.624         2.016     2.536    0.985      3.579e-003    0.762    2.761e+001    6.137e-001    
19.500   16.937   6.000       3.619         2.071     2.563    0.985      3.697e-003    0.752    3.000e+001    6.458e-001    
19.500   16.909   6.000       3.613         2.129     2.591    0.985      3.819e-003    0.743    3.300e+001    7.082e-001    
19.500   16.881   6.000       3.607         2.187     2.619    0.984      3.940e-003    0.734    4.010e+001    8.237e-001    
19.500   16.853   6.000       3.601         2.247     2.647    0.984      4.059e-003    0.725    4.872e+001    9.694e-001    
19.500   16.824   6.000       3.594         2.307     2.676    0.984      4.174e-003    0.716    5.425e+001    1.094e+000    
19.500   16.795   6.000       3.588         2.369     2.705    0.984      4.286e-003    0.707    5.053e+001    1.136e+000    
19.500   16.766   6.000       3.582         2.430     2.734    0.983      4.397e-003    0.698    4.484e+001    1.215e+000    
19.500   16.736   6.000       3.576         2.490     2.764    0.983      4.495e-003    0.689    4.134e+001    1.438e+000    
19.500   16.706   6.000       3.569         2.554     2.794    0.983      4.599e-003    0.681    4.486e+001    1.596e+000    
19.500   16.675   6.000       3.563         2.618     2.825    0.983      4.700e-003    0.672    4.431e+001    1.522e+000    
19.500   16.644   6.000       3.556         2.683     2.856    0.982      4.798e-003    0.663    4.656e+001    1.499e+000    
19.500   16.613   6.000       3.549         2.749     2.887    0.982      4.894e-003    0.655    5.524e+001    1.631e+000    
19.500   16.581   6.000       3.542         2.816     2.919    0.982      4.985e-003    0.647    6.248e+001    1.790e+000    
19.500   16.549   6.000       3.536         2.883     2.951    0.981      5.074e-003    0.638    6.835e+001    1.955e+000    
19.500   16.517   6.000       3.529         2.952     2.983    0.981      5.162e-003    0.630    6.703e+001    1.992e+000    
19.500   16.484   6.000       3.522         3.021     3.016    0.981      5.245e-003    0.622    6.855e+001    2.075e+000    
19.500   16.450   6.000       3.514         3.087     3.050    0.980      5.314e-003    0.614    6.741e+001    2.186e+000    
19.500   16.417   6.000       3.507         3.158     3.083    0.980      5.393e-003    0.606    6.569e+001    2.347e+000    
19.500   16.383   6.000       3.500         3.229     3.117    0.980      5.467e-003    0.598    6.422e+001    2.478e+000    
19.500   16.348   6.000       3.493         3.301     3.152    0.979      5.537e-003    0.590    6.400e+001    2.370e+000    
19.500   16.314   6.000       3.485         3.375     3.186    0.979      5.607e-003    0.583    7.050e+001    2.360e+000    
19.500   16.278   6.000       3.478         3.448     3.222    0.979      5.670e-003    0.575    7.057e+001    2.276e+000    
19.500   16.243   6.000       3.470         3.523     3.257    0.978      5.734e-003    0.568    7.054e+001    2.283e+000    
19.500   16.207   6.000       3.463         3.599     3.293    0.978      5.793e-003    0.560    7.001e+001    2.287e+000    
19.500   16.171   6.000       3.455         3.675     3.329    0.977      5.851e-003    0.553    7.445e+001    2.368e+000    
19.500   16.134   6.000       3.447         3.752     3.366    0.977      5.903e-003    0.546    8.218e+001    2.650e+000    
19.500   16.097   6.000       3.439         3.830     3.403    0.977      5.955e-003    0.539    7.771e+001    2.857e+000    
19.500   16.059   6.000       3.431         3.905     3.441    0.976      5.993e-003    0.531    7.776e+001    3.118e+000    
19.500   16.021   6.000       3.423         3.984     3.479    0.976      6.038e-003    0.524    7.853e+001    3.117e+000    
19.500   14.685   10.000      8.701         1.217     4.815    0.947      1.079e-004    0.963    5.561e-003    1.136e-002    
19.500   14.667   10.000      8.690         1.261     4.833    0.947      1.215e-004    0.958    9.759e-003    8.318e-003    
19.500   14.649   10.000      8.679         1.304     4.851    0.946      1.344e-004    0.953    1.208e-002    8.976e-003    
19.500   14.630   10.000      8.668         1.350     4.870    0.946      1.481e-004    0.948    4.707e-002    9.002e-003    
19.500   14.612   10.000      8.658         1.397     4.888    0.946      1.619e-004    0.944    7.249e-002    1.025e-002    
19.500   14.592   10.000      8.646         1.445     4.908    0.945      1.757e-004    0.939    9.016e-002    8.742e-003    
19.500   14.573   10.000      8.634         1.491     4.927    0.945      1.888e-004    0.934    1.200e-001    9.919e-003    
19.500   14.553   10.000      8.623         1.540     4.947    0.945      2.027e-004    0.929    1.322e-001    9.751e-003    
19.500   14.533   10.000      8.611         1.590     4.967    0.944      2.167e-004    0.924    1.395e-001    9.115e-003    
19.500   14.513   10.000      8.599         1.641     4.987    0.944      2.307e-004    0.919    1.561e-001    1.047e-002    
19.500   14.492   10.000      8.586         1.693     5.008    0.943      2.446e-004    0.914    1.696e-001    1.007e-002    
19.500   14.471   10.000      8.574         1.742     5.029    0.943      2.578e-004    0.909    1.807e-001    9.884e-003    
19.500   14.450   10.000      8.562         1.796     5.050    0.943      2.719e-004    0.903    1.985e-001    1.073e-002    
19.500   14.428   10.000      8.549         1.850     5.072    0.942      2.858e-004    0.898    2.403e-001    1.116e-002    
19.500   14.406   10.000      8.536         1.904     5.094    0.942      2.998e-004    0.893    2.447e-001    1.125e-002    
19.500   14.384   10.000      8.522         1.960     5.116    0.941      3.139e-004    0.888    2.664e-001    1.125e-002    
19.500   14.361   10.000      8.509         2.016     5.139    0.941      3.278e-004    0.882    2.798e-001    1.187e-002    
19.500   14.338   10.000      8.495         2.071     5.162    0.940      3.409e-004    0.877    2.936e-001    1.253e-002    
19.500   14.315   10.000      8.482         2.129     5.185    0.940      3.548e-004    0.872    3.923e-001    1.403e-002    
19.500   14.291   10.000      8.467         2.187     5.209    0.940      3.686e-004    0.866    4.733e-001    1.603e-002    
19.500   14.267   10.000      8.453         2.247     5.233    0.939      3.824e-004    0.861    5.659e-001    1.809e-002    
19.500   14.243   10.000      8.439         2.307     5.257    0.939      3.962e-004    0.855    5.778e-001    1.882e-002    
19.500   14.218   10.000      8.424         2.369     5.282    0.938      4.099e-004    0.850    5.443e-001    1.797e-002    
19.500   14.193   10.000      8.409         2.430     5.307    0.938      4.235e-004    0.844    5.309e-001    1.761e-002    
19.500   14.168   10.000      8.395         2.490     5.332    0.937      4.363e-004    0.839    5.121e-001    1.751e-002    
19.500   14.143   10.000      8.380         2.554     5.357    0.937      4.498e-004    0.834    4.899e-001    1.807e-002    
19.500   14.117   10.000      8.364         2.618     5.383    0.936      4.632e-004    0.828    5.397e-001    1.889e-002    
19.500   14.090   10.000      8.348         2.683     5.410    0.935      4.765e-004    0.822    5.933e-001    2.101e-002    
19.500   14.064   10.000      8.333         2.749     5.436    0.935      4.898e-004    0.817    6.904e-001    2.182e-002    
19.500   14.037   10.000      8.317         2.816     5.463    0.934      5.029e-004    0.811    7.485e-001    2.439e-002    
19.500   14.010   10.000      8.301         2.883     5.490    0.934      5.160e-004    0.806    8.922e-001    2.555e-002    
19.500   13.982   10.000      8.284         2.952     5.518    0.933      5.288e-004    0.800    9.997e-001    2.746e-002    
19.500   13.954   10.000      8.268         3.021     5.546    0.933      5.416e-004    0.794    9.883e-001    2.704e-002    
19.500   13.926   10.000      8.251         3.087     5.574    0.932      5.535e-004    0.789    9.968e-001    2.743e-002    
19.500   13.898   10.000      8.235         3.158     5.602    0.931      5.662e-004    0.783    9.159e-001    2.627e-002    
19.500   13.869   10.000      8.217         3.229     5.631    0.931      5.786e-004    0.778    1.030e+000    2.784e-002    
19.500   13.840   10.000      8.200         3.301     5.660    0.930      5.910e-004    0.772    9.978e-001    2.750e-002    
19.500   13.810   10.000      8.182         3.375     5.690    0.929      6.031e-004    0.766    1.054e+000    2.848e-002    
19.500   13.781   10.000      8.165         3.448     5.719    0.929      6.154e-004    0.761    1.060e+000    2.920e-002    
19.500   13.751   10.000      8.147         3.523     5.749    0.928      6.273e-004    0.755    1.139e+000    3.084e-002    
19.500   13.720   10.000      8.129         3.599     5.780    0.927      6.390e-004    0.749    1.199e+000    3.179e-002    
19.500   13.689   10.000      8.111         3.675     5.811    0.927      6.506e-004    0.744    1.284e+000    3.295e-002    
19.500   13.658   10.000      8.092         3.752     5.842    0.926      6.621e-004    0.738    1.330e+000    3.368e-002    
19.500   13.627   10.000      8.074         3.830     5.873    0.925      6.736e-004    0.733    1.340e+000    3.406e-002    
19.500   13.595   10.000      8.055         3.905     5.905    0.925      6.838e-004    0.727    1.434e+000    3.517e-002    
19.500   13.563   10.000      8.036         3.984     5.937    0.924      6.949e-004    0.721    1.418e+000    3.496e-002    
13.300   8.851    15.000      8.022         1.208     4.449    0.893      4.988e-005    0.961    1.118e-002    4.589e-003    
13.300   8.835    15.000      8.008         1.250     4.465    0.892      5.597e-005    0.956    8.720e-003    4.291e-003    
13.300   8.819    15.000      7.993         1.295     4.481    0.891      6.245e-005    0.951    1.832e-002    4.087e-003    
13.300   8.803    15.000      7.979         1.341     4.497    0.891      6.897e-005    0.945    2.941e-002    4.336e-003    
13.300   8.786    15.000      7.963         1.388     4.514    0.890      7.551e-005    0.940    3.940e-002    4.744e-003    
13.300   8.769    15.000      7.948         1.435     4.531    0.890      8.208e-005    0.935    5.085e-002    4.918e-003    
13.300   8.752    15.000      7.933         1.484     4.548    0.889      8.869e-005    0.929    6.315e-002    5.151e-003    
13.300   8.734    15.000      7.916         1.533     4.566    0.888      9.531e-005    0.924    8.135e-002    5.445e-003    
13.300   8.717    15.000      7.901         1.580     4.583    0.887      1.016e-004    0.919    8.558e-002    5.445e-003    
13.300   8.699    15.000      7.885         1.631     4.601    0.887      1.083e-004    0.913    9.940e-002    5.566e-003    
13.300   8.680    15.000      7.867         1.682     4.620    0.886      1.149e-004    0.907    1.040e-001    5.669e-003    
13.300   8.661    15.000      7.850         1.734     4.639    0.885      1.216e-004    0.902    1.134e-001    5.587e-003    
13.300   8.643    15.000      7.834         1.788     4.657    0.884      1.283e-004    0.896    1.282e-001    6.152e-003    
13.300   8.623    15.000      7.816         1.841     4.677    0.884      1.350e-004    0.890    1.370e-001    6.192e-003    
13.300   8.604    15.000      7.798         1.896     4.696    0.883      1.417e-004    0.885    1.476e-001    6.216e-003    
13.300   8.584    15.000      7.780         1.952     4.716    0.882      1.484e-004    0.879    1.726e-001    6.525e-003    
13.300   8.564    15.000      7.762         2.005     4.736    0.881      1.547e-004    0.873    1.687e-001    6.628e-003    
13.300   8.543    15.000      7.743         2.062     4.757    0.880      1.614e-004    0.867    1.938e-001    6.997e-003    
13.300   8.523    15.000      7.725         2.120     4.777    0.879      1.681e-004    0.862    2.197e-001    7.253e-003    
13.300   8.502    15.000      7.706         2.179     4.798    0.879      1.747e-004    0.856    2.780e-001    8.288e-003    
13.300   8.481    15.000      7.687         2.238     4.819    0.878      1.814e-004    0.850    3.488e-001    9.386e-003    
13.300   8.459    15.000      7.667         2.298     4.841    0.877      1.880e-004    0.844    3.965e-001    9.796e-003    
13.300   8.437    15.000      7.647         2.359     4.863    0.876      1.946e-004    0.838    3.523e-001    8.895e-003    
13.300   8.415    15.000      7.627         2.421     4.885    0.875      2.012e-004    0.832    3.380e-001    8.702e-003    
13.300   8.393    15.000      7.607         2.484     4.907    0.874      2.077e-004    0.826    3.258e-001    8.554e-003    
13.300   8.370    15.000      7.586         2.547     4.930    0.873      2.142e-004    0.820    3.283e-001    8.550e-003    
13.300   8.347    15.000      7.565         2.608     4.953    0.872      2.203e-004    0.814    3.408e-001    8.946e-003    
13.300   8.324    15.000      7.545         2.673     4.976    0.871      2.267e-004    0.808    3.715e-001    9.400e-003    
13.300   8.300    15.000      7.523         2.739     5.000    0.870      2.331e-004    0.802    4.149e-001    1.035e-002    
13.300   8.276    15.000      7.501         2.806     5.024    0.869      2.395e-004    0.796    4.775e-001    1.142e-002    
13.300   8.252    15.000      7.479         2.873     5.048    0.867      2.458e-004    0.790    5.724e-001    1.323e-002    
13.300   8.228    15.000      7.458         2.941     5.072    0.866      2.521e-004    0.784    6.394e-001    1.453e-002    
13.300   8.203    15.000      7.435         3.010     5.097    0.865      2.583e-004    0.777    6.518e-001    1.465e-002    
13.300   8.178    15.000      7.412         3.080     5.122    0.864      2.645e-004    0.771    6.248e-001    1.429e-002    
13.300   8.153    15.000      7.390         3.151     5.147    0.863      2.706e-004    0.765    6.194e-001    1.411e-002    
13.300   8.127    15.000      7.366         3.222     5.173    0.862      2.766e-004    0.759    6.311e-001    1.452e-002    
13.300   8.101    15.000      7.343         3.294     5.199    0.860      2.826e-004    0.753    6.579e-001    1.494e-002    
13.300   8.075    15.000      7.319         3.367     5.225    0.859      2.886e-004    0.746    6.551e-001    1.595e-002    
13.300   8.049    15.000      7.295         3.441     5.251    0.858      2.945e-004    0.740    7.111e-001    1.732e-002    
13.300   8.022    15.000      7.271         3.516     5.278    0.857      3.003e-004    0.734    7.365e-001    1.755e-002    
13.300   7.995    15.000      7.246         3.587     5.305    0.855      3.056e-004    0.728    8.035e-001    1.744e-002    
13.300   7.968    15.000      7.222         3.663     5.332    0.854      3.113e-004    0.722    8.430e-001    1.726e-002    
13.300   7.940    15.000      7.197         3.740     5.360    0.852      3.169e-004    0.715    9.005e-001    1.706e-002    
13.300   7.912    15.000      7.171         3.818     5.388    0.851      3.224e-004    0.709    9.336e-001    1.822e-002    
13.300   7.884    15.000      7.146         3.897     5.416    0.850      3.279e-004    0.703    9.768e-001    2.005e-002    
13.300   7.856    15.000      7.120         3.976     5.444    0.848      3.334e-004    0.697    1.025e+000    2.249e-002    
16.000   9.932    15.000      10.830        1.438     6.068    0.868      4.756e-005    0.951    1.385e-002    3.530e-003    
16.000   9.916    15.000      10.812        1.486     6.084    0.867      5.144e-005    0.947    1.369e-002    3.052e-003    
16.000   9.899    15.000      10.794        1.535     6.101    0.866      5.535e-005    0.943    1.790e-002    3.970e-003    
16.000   9.882    15.000      10.775        1.585     6.118    0.866      5.928e-005    0.939    1.960e-002    3.653e-003    
16.000   9.865    15.000      10.757        1.636     6.135    0.865      6.324e-005    0.934    2.233e-002    4.051e-003    
16.000   9.848    15.000      10.738        1.687     6.152    0.864      6.723e-005    0.930    2.657e-002    3.718e-003    
16.000   9.831    15.000      10.719        1.737     6.169    0.864      7.102e-005    0.926    2.561e-002    4.239e-003    
16.000   9.813    15.000      10.700        1.790     6.187    0.863      7.504e-005    0.922    2.895e-002    4.060e-003    
16.000   9.795    15.000      10.680        1.844     6.205    0.862      7.908e-005    0.917    3.504e-002    4.489e-003    
16.000   9.777    15.000      10.661        1.899     6.223    0.862      8.314e-005    0.913    4.105e-002    4.722e-003    
16.000   9.758    15.000      10.640        1.954     6.242    0.861      8.719e-005    0.908    4.156e-002    4.490e-003    
16.000   9.739    15.000      10.619        2.011     6.261    0.860      9.127e-005    0.904    4.604e-002    4.777e-003    
16.000   9.720    15.000      10.598        2.068     6.280    0.859      9.536e-005    0.899    5.122e-002    4.534e-003    
16.000   9.701    15.000      10.578        2.126     6.299    0.859      9.947e-005    0.895    7.291e-002    5.440e-003    
16.000   9.681    15.000      10.556        2.182     6.319    0.858      1.033e-004    0.890    8.415e-002    5.999e-003    
16.000   9.661    15.000      10.534        2.241     6.339    0.857      1.074e-004    0.886    7.821e-002    5.989e-003    
16.000   9.641    15.000      10.512        2.301     6.359    0.856      1.116e-004    0.881    8.644e-002    5.584e-003    
16.000   9.620    15.000      10.489        2.362     6.380    0.855      1.157e-004    0.876    8.067e-002    5.822e-003    
16.000   9.600    15.000      10.468        2.424     6.400    0.854      1.198e-004    0.872    7.842e-002    5.154e-003    
16.000   9.579    15.000      10.445        2.487     6.421    0.854      1.240e-004    0.867    7.188e-002    5.146e-003    
16.000   9.557    15.000      10.421        2.550     6.443    0.853      1.280e-004    0.862    8.118e-002    5.148e-003    
16.000   9.536    15.000      10.398        2.615     6.464    0.852      1.322e-004    0.857    8.287e-002    5.200e-003    
16.000   9.514    15.000      10.374        2.680     6.486    0.851      1.363e-004    0.852    1.106e-001    5.971e-003    
16.000   9.492    15.000      10.350        2.742     6.508    0.850      1.402e-004    0.847    1.186e-001    6.188e-003    
16.000   9.469    15.000      10.325        2.809     6.531    0.849      1.442e-004    0.842    1.343e-001    6.521e-003    
16.000   9.447    15.000      10.301        2.876     6.553    0.848      1.484e-004    0.838    1.387e-001    6.702e-003    
16.000   9.424    15.000      10.276        2.945     6.576    0.847      1.525e-004    0.833    1.661e-001    6.863e-003    
16.000   9.401    15.000      10.251        3.014     6.599    0.846      1.565e-004    0.828    1.562e-001    6.492e-003    
16.000   9.377    15.000      10.224        3.084     6.623    0.845      1.606e-004    0.823    1.578e-001    6.768e-003    
16.000   9.354    15.000      10.199        3.154     6.646    0.844      1.647e-004    0.818    1.543e-001    6.523e-003    
16.000   9.330    15.000      10.173        3.226     6.670    0.843      1.687e-004    0.813    1.566e-001    6.676e-003    
16.000   9.305    15.000      10.146        3.298     6.695    0.842      1.727e-004    0.808    1.660e-001    6.542e-003    
16.000   9.281    15.000      10.120        3.371     6.719    0.841      1.767e-004    0.803    1.768e-001    6.989e-003    
16.000   9.256    15.000      10.092        3.445     6.744    0.840      1.807e-004    0.797    1.956e-001    7.166e-003    
16.000   9.231    15.000      10.065        3.519     6.769    0.839      1.847e-004    0.792    1.988e-001    7.409e-003    
16.000   9.206    15.000      10.038        3.591     6.794    0.837      1.884e-004    0.787    2.090e-001    7.543e-003    
16.000   9.180    15.000      10.010        3.667     6.820    0.836      1.923e-004    0.782    2.215e-001    7.890e-003    
16.000   9.154    15.000      9.981         3.744     6.846    0.835      1.962e-004    0.777    2.373e-001    8.352e-003    
16.000   9.128    15.000      9.953         3.822     6.872    0.834      2.001e-004    0.772    2.716e-001    9.296e-003    
16.000   9.102    15.000      9.925         3.901     6.898    0.833      2.039e-004    0.767    2.626e-001    9.665e-003    
16.000   9.075    15.000      9.895         3.980     6.925    0.831      2.078e-004    0.761    2.821e-001    1.069e-002    
19.500   10.544   15.000      14.012        3.675     8.956    0.811      1.124e-004    0.834    5.258e-002    4.084e-003    
19.500   10.521   15.000      13.981        3.752     8.979    0.810      1.149e-004    0.830    5.469e-002    3.728e-003    
19.500   10.496   15.000      13.948        3.830     9.004    0.809      1.174e-004    0.825    5.745e-002    3.578e-003    
19.500   10.472   15.000      13.916        3.905     9.028    0.808      1.197e-004    0.821    5.827e-002    3.168e-003    
19.500   10.447   15.000      13.883        3.984     9.053    0.807      1.222e-004    0.817    6.393e-002    3.137e-003    
6.500    4.728    18.000      3.008         1.197     1.772    0.907      1.621e-004    0.905    3.744e-001    4.344e-002    
6.500    4.711    18.000      2.997         1.241     1.789    0.906      1.828e-004    0.893    6.945e-001    4.239e-002    
6.500    4.693    18.000      2.986         1.286     1.807    0.905      2.033e-004    0.881    1.089e+000    4.492e-002    
6.500    4.675    18.000      2.975         1.332     1.825    0.904      2.237e-004    0.869    1.704e+000    4.885e-002    
6.500    4.656    18.000      2.962         1.378     1.844    0.903      2.439e-004    0.856    2.647e+000    5.666e-002    
6.500    4.637    18.000      2.950         1.426     1.863    0.902      2.639e-004    0.844    3.732e+000    6.980e-002    
6.500    4.618    18.000      2.938         1.474     1.882    0.900      2.838e-004    0.832    4.894e+000    8.823e-002    
6.500    4.599    18.000      2.926         1.523     1.901    0.899      3.035e-004    0.820    5.187e+000    9.933e-002    
6.500    4.579    18.000      2.913         1.570     1.921    0.898      3.218e-004    0.808    5.344e+000    1.073e-001    
6.500    4.559    18.000      2.901         1.621     1.941    0.897      3.410e-004    0.796    4.791e+000    1.069e-001    
6.500    4.539    18.000      2.888         1.672     1.961    0.895      3.601e-004    0.785    4.789e+000    1.110e-001    
6.500    4.518    18.000      2.875         1.724     1.982    0.894      3.787e-004    0.773    4.734e+000    1.203e-001    
6.500    4.497    18.000      2.861         1.777     2.003    0.892      3.971e-004    0.761    4.875e+000    1.317e-001    
6.500    4.476    18.000      2.848         1.831     2.024    0.891      4.153e-004    0.750    5.155e+000    1.326e-001    
6.500    4.454    18.000      2.834         1.885     2.046    0.889      4.331e-004    0.738    5.440e+000    1.304e-001    
6.500    4.432    18.000      2.820         1.940     2.068    0.888      4.505e-004    0.727    5.648e+000    1.326e-001    
6.500    4.410    18.000      2.806         1.997     2.090    0.886      4.678e-004    0.715    6.320e+000    1.381e-001    
6.500    4.387    18.000      2.791         2.053     2.113    0.885      4.844e-004    0.704    6.727e+000    1.409e-001    
6.500    4.365    18.000      2.777         2.111     2.135    0.883      5.012e-004    0.693    7.725e+000    1.517e-001    
6.500    4.341    18.000      2.762         2.170     2.159    0.881      5.170e-004    0.682    8.892e+000    1.763e-001    
6.500    4.318    18.000      2.747         2.229     2.182    0.879      5.329e-004    0.671    1.128e+001    2.358e-001    
6.500    4.294    18.000      2.732         2.289     2.206    0.878      5.482e-004    0.660    1.265e+001    2.756e-001    
6.500    4.270    18.000      2.717         2.350     2.230    0.876      5.631e-004    0.649    1.139e+001    2.736e-001    
6.500    4.245    18.000      2.701         2.412     2.255    0.874      5.775e-004    0.638    1.117e+001    2.967e-001    
6.500    4.220    18.000      2.685         2.474     2.280    0.872      5.915e-004    0.628    1.029e+001    3.157e-001    
6.500    4.195    18.000      2.669         2.534     2.305    0.870      6.041e-004    0.617    9.337e+000    3.198e-001    
6.500    4.170    18.000      2.653         2.599     2.330    0.867      6.175e-004    0.607    1.035e+001    3.306e-001    
6.500    4.144    18.000      2.637         2.663     2.356    0.865      6.303e-004    0.596    1.048e+001    3.210e-001    
6.500    4.118    18.000      2.620         2.729     2.382    0.863      6.427e-004    0.586    1.198e+001    3.136e-001    
6.500    4.092    18.000      2.604         2.796     2.408    0.861      6.548e-004    0.576    1.432e+001    3.280e-001    
6.500    4.065    18.000      2.586         2.863     2.435    0.858      6.663e-004    0.566    1.601e+001    3.331e-001    
6.500    4.038    18.000      2.569         2.931     2.462    0.856      6.774e-004    0.556    1.738e+001    3.419e-001    
6.500    4.010    18.000      2.551         3.000     2.490    0.853      6.878e-004    0.546    1.655e+001    3.301e-001    
6.500    3.983    18.000      2.534         3.070     2.517    0.851      6.983e-004    0.537    1.518e+001    3.257e-001    
6.500    3.955    18.000      2.516         3.140     2.545    0.848      7.081e-004    0.527    1.523e+001    2.824e-001    
6.500    3.926    18.000      2.498         3.211     2.574    0.845      7.171e-004    0.517    1.430e+001    2.206e-001    
6.500    3.898    18.000      2.480         3.283     2.602    0.842      7.263e-004    0.508    1.530e+001    2.264e-001    
6.500    3.869    18.000      2.462         3.356     2.631    0.839      7.348e-004    0.499    1.585e+001    2.388e-001    
6.500    3.840    18.000      2.443         3.430     2.660    0.836      7.429e-004    0.489    1.615e+001    2.621e-001    
6.500    3.810    18.000      2.424         3.504     2.690    0.833      7.503e-004    0.480    1.676e+001    3.969e-001    
6.500    3.657    18.000      2.327         3.889     2.843    0.817      7.820e-004    0.436    1.864e+001    4.484e-001    
6.500    3.626    18.000      2.307         3.968     2.874    0.813      7.873e-004    0.428    1.911e+001    3.994e-001    
10.400   6.631    18.000      6.751         1.203     3.769    0.865      4.461e-005    0.954    9.213e-003    1.205e-002    
10.400   6.616    18.000      6.735         1.248     3.784    0.864      5.042e-005    0.948    -2.434e-003   1.074e-002    
10.400   6.600    18.000      6.719         1.290     3.800    0.864      5.594e-005    0.942    2.088e-002    1.203e-002    
10.400   6.585    18.000      6.704         1.336     3.815    0.863      6.182e-005    0.936    2.351e-002    1.135e-002    
10.400   6.569    18.000      6.687         1.383     3.831    0.862      6.771e-005    0.930    5.106e-002    1.417e-002    
10.400   6.552    18.000      6.670         1.430     3.848    0.861      7.360e-005    0.924    8.690e-002    1.713e-002    
10.400   6.536    18.000      6.654         1.479     3.864    0.860      7.955e-005    0.918    1.047e-001    1.710e-002    
10.400   6.519    18.000      6.637         1.528     3.881    0.859      8.549e-005    0.911    1.513e-001    1.890e-002    
10.400   6.502    18.000      6.619         1.578     3.898    0.858      9.145e-005    0.905    1.642e-001    2.022e-002    
10.400   6.484    18.000      6.601         1.628     3.916    0.857      9.739e-005    0.898    1.270e-001    1.961e-002    
10.400   6.467    18.000      6.584         1.677     3.933    0.856      1.031e-004    0.892    1.436e-001    2.179e-002    
10.400   6.449    18.000      6.565         1.729     3.951    0.855      1.090e-004    0.885    1.976e-001    2.501e-002    
10.400   6.431    18.000      6.547         1.782     3.969    0.854      1.150e-004    0.879    1.723e-001    2.386e-002    
10.400   6.412    18.000      6.528         1.836     3.988    0.853      1.209e-004    0.872    1.949e-001    2.239e-002    
10.400   6.393    18.000      6.508         1.891     4.007    0.852      1.269e-004    0.866    2.079e-001    2.404e-002    
10.400   6.374    18.000      6.489         1.946     4.026    0.851      1.328e-004    0.859    2.555e-001    2.748e-002    
10.400   6.355    18.000      6.470         2.002     4.045    0.850      1.388e-004    0.852    2.601e-001    2.833e-002    
10.400   6.335    18.000      6.449         2.059     4.065    0.848      1.447e-004    0.845    3.527e-001    3.333e-002    
10.400   6.315    18.000      6.429         2.117     4.085    0.847      1.506e-004    0.839    2.868e-001    3.299e-002    
10.400   6.295    18.000      6.408         2.176     4.105    0.846      1.565e-004    0.832    4.188e-001    3.867e-002    
10.400   6.275    18.000      6.388         2.235     4.125    0.845      1.624e-004    0.825    4.626e-001    3.904e-002    
10.400   6.254    18.000      6.367         2.295     4.146    0.843      1.682e-004    0.818    4.971e-001    4.069e-002    
10.400   6.233    18.000      6.345         2.353     4.167    0.842      1.736e-004    0.811    4.950e-001    4.326e-002    
10.400   6.212    18.000      6.324         2.415     4.188    0.841      1.794e-004    0.805    4.319e-001    4.072e-002    
10.400   6.190    18.000      6.302         2.477     4.210    0.839      1.851e-004    0.798    4.541e-001    4.520e-002    
10.400   6.168    18.000      6.279         2.541     4.232    0.838      1.908e-004    0.791    4.025e-001    4.173e-002    
10.400   6.146    18.000      6.257         2.605     4.254    0.837      1.965e-004    0.784    5.302e-001    4.406e-002    
10.400   6.124    18.000      6.234         2.670     4.276    0.835      2.021e-004    0.777    5.169e-001    4.603e-002    
10.400   6.101    18.000      6.211         2.736     4.299    0.834      2.076e-004    0.770    6.620e-001    5.392e-002    
10.400   6.078    18.000      6.188         2.802     4.322    0.832      2.132e-004    0.763    7.879e-001    6.264e-002    
10.400   6.055    18.000      6.164         2.870     4.345    0.831      2.187e-004    0.756    7.728e-001    6.475e-002    
10.400   6.032    18.000      6.141         2.938     4.368    0.829      2.241e-004    0.749    8.843e-001    6.035e-002    
10.400   6.008    18.000      6.116         3.007     4.392    0.828      2.295e-004    0.742    8.738e-001    5.522e-002    
10.400   5.984    18.000      6.092         3.077     4.416    0.826      2.348e-004    0.735    8.506e-001    5.359e-002    
10.400   5.960    18.000      6.067         3.147     4.440    0.824      2.401e-004    0.728    8.612e-001    5.274e-002    
10.400   5.935    18.000      6.042         3.218     4.465    0.823      2.452e-004    0.721    8.932e-001    5.598e-002    
10.400   5.910    18.000      6.017         3.291     4.490    0.821      2.504e-004    0.714    8.990e-001    5.744e-002    
10.400   5.885    18.000      5.991         3.364     4.515    0.819      2.554e-004    0.707    1.008e+000    6.229e-002    
10.400   5.860    18.000      5.966         3.434     4.540    0.817      2.601e-004    0.700    1.015e+000    6.880e-002    
10.400   5.834    18.000      5.939         3.508     4.566    0.815      2.650e-004    0.693    1.065e+000    7.833e-002    
10.400   5.808    18.000      5.913         3.583     4.592    0.814      2.699e-004    0.686    1.065e+000    9.811e-002    
10.400   5.782    18.000      5.886         3.660     4.618    0.812      2.747e-004    0.679    1.237e+000    1.483e-001    
13.300   7.444    18.000      9.691         2.179     5.856    0.815      7.965e-005    0.882    1.065e-001    4.770e-002    
13.300   7.425    18.000      9.667         2.238     5.875    0.813      8.282e-005    0.877    7.131e-002    2.735e-002    
13.300   7.406    18.000      9.642         2.298     5.894    0.812      8.600e-005    0.872    7.503e-002    1.962e-002    
13.300   7.387    18.000      9.617         2.359     5.913    0.811      8.920e-005    0.867    8.763e-002    1.580e-002    
13.300   7.368    18.000      9.592         2.421     5.932    0.810      9.239e-005    0.862    8.619e-002    1.253e-002    
13.300   7.348    18.000      9.566         2.484     5.952    0.809      9.557e-005    0.856    6.220e-002    9.635e-003    
13.300   7.328    18.000      9.540         2.547     5.972    0.808      9.876e-005    0.851    8.290e-002    9.007e-003    
13.300   7.308    18.000      9.514         2.608     5.992    0.807      1.018e-004    0.846    9.075e-002    8.386e-003    
13.300   7.288    18.000      9.488         2.673     6.012    0.806      1.050e-004    0.841    7.927e-002    7.817e-003    
13.300   7.267    18.000      9.461         2.739     6.033    0.804      1.081e-004    0.836    9.405e-002    7.345e-003    
13.300   7.246    18.000      9.434         2.806     6.054    0.803      1.113e-004    0.830    1.234e-001    8.522e-003    
13.300   7.225    18.000      9.406         2.873     6.075    0.802      1.145e-004    0.825    1.459e-001    8.693e-003    
13.300   7.204    18.000      9.379         2.941     6.096    0.801      1.177e-004    0.820    1.653e-001    9.239e-003    
13.300   7.182    18.000      9.350         3.010     6.118    0.799      1.208e-004    0.814    1.732e-001    9.144e-003    
13.300   7.160    18.000      9.322         3.080     6.140    0.798      1.239e-004    0.809    1.704e-001    9.240e-003    
13.300   7.138    18.000      9.293         3.151     6.162    0.797      1.271e-004    0.804    1.638e-001    8.928e-003    
13.300   7.116    18.000      9.264         3.222     6.184    0.795      1.302e-004    0.798    1.569e-001    8.610e-003    
13.300   7.093    18.000      9.234         3.294     6.207    0.794      1.333e-004    0.793    1.502e-001    8.634e-003    
13.300   7.070    18.000      9.204         3.367     6.230    0.793      1.364e-004    0.787    1.708e-001    9.036e-003    
13.300   7.047    18.000      9.174         3.441     6.253    0.791      1.395e-004    0.782    1.815e-001    8.939e-003    
13.300   7.024    18.000      9.145         3.516     6.276    0.790      1.426e-004    0.776    1.985e-001    9.377e-003    
13.300   7.000    18.000      9.113         3.587     6.300    0.788      1.455e-004    0.771    2.008e-001    1.007e-002    
13.300   6.976    18.000      9.082         3.663     6.324    0.787      1.485e-004    0.765    2.107e-001    1.054e-002    
13.300   6.952    18.000      9.051         3.740     6.348    0.785      1.515e-004    0.760    2.418e-001    1.144e-002    
13.300   6.928    18.000      9.020         3.818     6.372    0.784      1.546e-004    0.754    2.529e-001    1.167e-002    
13.300   6.903    18.000      8.987         3.897     6.397    0.782      1.575e-004    0.749    2.616e-001    1.233e-002    
13.300   6.878    18.000      8.954         3.976     6.422    0.780      1.605e-004    0.743    2.867e-001    1.405e-002    
16.000   8.081    18.000      12.656        3.084     7.919    0.770      7.531e-005    0.852    2.775e-002    8.873e-003    
16.000   8.061    18.000      12.625        3.154     7.939    0.769      7.735e-005    0.847    3.721e-002    6.306e-003    
16.000   8.040    18.000      12.592        3.226     7.960    0.768      7.938e-005    0.843    3.825e-002    4.629e-003    
16.000   8.019    18.000      12.559        3.298     7.981    0.767      8.141e-005    0.839    3.732e-002    3.901e-003    
16.000   7.998    18.000      12.526        3.371     8.002    0.765      8.345e-005    0.834    4.425e-002    3.822e-003    
16.000   7.977    18.000      12.494        3.445     8.023    0.764      8.549e-005    0.830    5.081e-002    3.670e-003    
16.000   7.955    18.000      12.459        3.519     8.045    0.763      8.752e-005    0.825    5.450e-002    3.444e-003    
16.000   7.933    18.000      12.425        3.591     8.067    0.762      8.942e-005    0.821    5.449e-002    3.268e-003    
16.000   7.911    18.000      12.390        3.667     8.089    0.760      9.145e-005    0.816    5.749e-002    3.350e-003    
16.000   7.889    18.000      12.356        3.744     8.111    0.759      9.349e-005    0.812    6.048e-002    3.424e-003    
16.000   7.867    18.000      12.321        3.822     8.133    0.758      9.553e-005    0.807    6.214e-002    3.421e-003    
16.000   7.844    18.000      12.285        3.901     8.156    0.757      9.754e-005    0.803    7.350e-002    3.711e-003    
16.000   7.821    18.000      12.249        3.980     8.179    0.755      9.956e-005    0.798    7.159e-002    3.598e-003    
19.500   9.225    18.000      17.609        2.554     10.275   0.740      3.410e-005    0.913    1.453e-002    1.640e-002    
19.500   9.208    18.000      17.576        2.618     10.292   0.739      3.529e-005    0.910    7.655e-003    8.667e-003    
19.500   9.191    18.000      17.544        2.683     10.309   0.739      3.649e-005    0.907    4.527e-003    5.151e-003    
19.500   9.173    18.000      17.509        2.749     10.327   0.738      3.770e-005    0.903    8.915e-003    5.821e-003    
19.500   9.156    18.000      17.477        2.816     10.344   0.737      3.892e-005    0.900    1.460e-002    6.226e-003    
19.500   9.138    18.000      17.443        2.883     10.362   0.736      4.014e-005    0.897    1.229e-002    4.905e-003    
19.500   9.120    18.000      17.408        2.952     10.380   0.735      4.136e-005    0.894    8.017e-003    4.101e-003    
19.500   9.102    18.000      17.374        3.021     10.398   0.734      4.260e-005    0.890    1.019e-002    3.322e-003    
19.500   9.084    18.000      17.340        3.087     10.416   0.733      4.377e-005    0.887    7.756e-003    2.533e-003    
19.500   9.065    18.000      17.303        3.158     10.435   0.732      4.501e-005    0.884    1.192e-002    2.806e-003    
19.500   9.046    18.000      17.267        3.229     10.454   0.731      4.625e-005    0.880    6.919e-003    1.958e-003    
19.500   9.027    18.000      17.231        3.301     10.473   0.730      4.750e-005    0.877    1.405e-002    2.633e-003    
19.500   9.008    18.000      17.194        3.375     10.492   0.729      4.876e-005    0.873    7.628e-003    2.032e-003    
19.500   8.989    18.000      17.158        3.448     10.511   0.728      5.002e-005    0.870    1.071e-002    2.016e-003    
19.500   8.969    18.000      17.120        3.523     10.531   0.727      5.128e-005    0.866    1.130e-002    2.125e-003    
19.500   8.949    18.000      17.082        3.599     10.551   0.726      5.255e-005    0.863    1.332e-002    2.193e-003    
19.500   8.929    18.000      17.044        3.675     10.571   0.725      5.382e-005    0.859    1.179e-002    1.920e-003    
19.500   8.909    18.000      17.005        3.752     10.591   0.724      5.509e-005    0.856    1.597e-002    2.278e-003    
19.500   8.888    18.000      16.965        3.830     10.612   0.723      5.636e-005    0.852    1.480e-002    2.126e-003    
19.500   8.868    18.000      16.927        3.905     10.632   0.722      5.757e-005    0.848    1.479e-002    2.147e-003    
19.500   8.847    18.000      16.887        3.984     10.653   0.721      5.885e-005    0.845    1.648e-002    2.308e-003    
19.500   8.286    20.600      20.663        1.261     11.214   0.681      4.839e-006    0.982    3.938e-004    4.016e-004    
19.500   8.255    20.600      20.585        1.397     11.245   0.679      6.532e-006    0.975    1.473e-004    2.534e-004    
19.500   8.222    20.600      20.503        1.540     11.278   0.678      8.291e-006    0.969    3.512e-004    5.077e-004    
19.500   8.211    20.600      20.476        1.590     11.289   0.677      8.903e-006    0.967    8.304e-005    5.919e-004    
19.500   8.199    20.600      20.446        1.641     11.301   0.676      9.521e-006    0.964    3.971e-004    3.537e-004    
19.500   8.188    20.600      20.418        1.693     11.312   0.676      1.015e-005    0.962    1.851e-004    2.579e-004    
19.500   8.164    20.600      20.358        1.796     11.336   0.674      1.139e-005    0.957    4.496e-004    6.000e-004    
19.500   8.151    20.600      20.326        1.850     11.349   0.674      1.203e-005    0.954    1.058e-003    6.151e-004    
19.500   8.139    20.600      20.296        1.904     11.361   0.673      1.269e-005    0.952    2.629e-004    3.357e-004    
19.500   8.126    20.600      20.264        1.960     11.374   0.672      1.334e-005    0.949    6.270e-004    5.257e-004    
19.500   8.114    20.600      20.234        2.016     11.386   0.671      1.401e-005    0.947    1.084e-003    7.250e-004    
19.500   8.101    20.600      20.201        2.071     11.399   0.671      1.465e-005    0.944    1.247e-003    8.309e-004    
19.500   8.087    20.600      20.166        2.129     11.413   0.670      1.533e-005    0.942    9.635e-004    7.917e-004    
19.500   8.074    20.600      20.134        2.187     11.426   0.669      1.601e-005    0.939    1.168e-003    1.347e-003    
19.500   8.061    20.600      20.102        2.247     11.439   0.668      1.670e-005    0.936    2.412e-003    1.373e-003    
19.500   8.047    20.600      20.067        2.307     11.453   0.668      1.740e-005    0.934    2.139e-003    1.220e-003    
19.500   8.033    20.600      20.032        2.369     11.467   0.667      1.810e-005    0.931    1.855e-003    1.059e-003    
19.500   8.019    20.600      19.997        2.430     11.481   0.666      1.881e-005    0.928    4.040e-004    8.597e-004    
19.500   8.005    20.600      19.962        2.490     11.495   0.665      1.948e-005    0.925    8.100e-004    6.644e-004    
19.500   7.990    20.600      19.924        2.554     11.510   0.664      2.020e-005    0.922    1.205e-003    7.979e-004    
19.500   7.976    20.600      19.890        2.618     11.524   0.664      2.093e-005    0.920    1.241e-003    1.030e-003    
19.500   7.961    20.600      19.852        2.683     11.539   0.663      2.165e-005    0.917    1.589e-003    9.068e-004    
19.500   7.946    20.600      19.815        2.749     11.554   0.662      2.239e-005    0.914    1.591e-003    9.081e-004    
19.500   7.931    20.600      19.777        2.816     11.569   0.661      2.313e-005    0.911    2.833e-003    1.214e-003    
19.500   7.915    20.600      19.737        2.883     11.585   0.660      2.387e-005    0.908    1.742e-003    1.173e-003    
19.500   7.900    20.600      19.700        2.952     11.600   0.659      2.462e-005    0.905    1.775e-003    1.012e-003    
19.500   7.884    20.600      19.660        3.021     11.616   0.658      2.537e-005    0.902    3.458e-003    1.600e-003    
19.500   7.868    20.600      19.620        3.087     11.632   0.657      2.609e-005    0.899    5.059e-003    1.806e-003    
19.500   7.852    20.600      19.580        3.158     11.648   0.656      2.685e-005    0.896    3.065e-003    1.312e-003    
19.500   7.836    20.600      19.540        3.229     11.664   0.655      2.762e-005    0.893    2.581e-003    1.034e-003    
19.500   7.819    20.600      19.498        3.301     11.681   0.654      2.838e-005    0.889    3.658e-003    1.068e-003    
19.500   7.803    20.600      19.458        3.375     11.697   0.653      2.916e-005    0.886    4.578e-003    1.056e-003    
19.500   7.786    20.600      19.416        3.448     11.714   0.652      2.994e-005    0.883    4.633e-003    9.555e-004    
19.500   7.769    20.600      19.373        3.523     11.731   0.651      3.072e-005    0.880    3.016e-003    8.430e-004    
19.500   7.752    20.600      19.331        3.599     11.748   0.650      3.150e-005    0.877    4.403e-003    9.219e-004    
19.500   7.734    20.600      19.286        3.675     11.766   0.649      3.229e-005    0.873    4.024e-003    7.147e-004    
19.500   7.717    20.600      19.244        3.752     11.783   0.648      3.308e-005    0.870    5.344e-003    7.472e-004    
19.500   7.699    20.600      19.199        3.830     11.801   0.647      3.388e-005    0.867    4.903e-003    7.027e-004    
19.500   7.681    20.600      19.154        3.905     11.819   0.646      3.463e-005    0.864    6.674e-003    7.651e-004    
19.500   7.663    20.600      19.109        3.984     11.837   0.645      3.543e-005    0.860    6.734e-003    8.089e-004    
