#
# Source: https://hallcweb.jlab.org/resdata/database/
# SLAC experiment e61 deuterium, with Whitlow normalization 1.033. 
# Uncertainties shown are statistical only. 
# At least 5% systematic uncertainties are estimated, but not reflected in this data set.
#
# E      EP       Theta       Q^2           W^2       Nu       Epsilon    Gamma         x        Sigma         Uncertainty
# (Gev)  (Gev)    (degrees)   ((Gev/c)^2)   (Gev^2)   (Gev)                                      (nb/Ser*Gev)
#
20.005   18.874   4.000       1.840         1.162     1.131    0.996      6.913e-003    0.867    2.036e+002    1.232e+001    
20.005   18.855   4.000       1.838         1.199     1.150    0.996      7.710e-003    0.852    2.556e+002    1.102e+001    
20.005   18.836   4.000       1.836         1.237     1.169    0.996      8.496e-003    0.837    2.969e+002    1.058e+001    
20.005   18.817   4.000       1.834         1.275     1.188    0.996      9.272e-003    0.823    3.816e+002    1.067e+001    
20.005   18.798   4.000       1.832         1.311     1.207    0.996      9.984e-003    0.809    4.866e+002    1.111e+001    
20.005   18.779   4.000       1.830         1.350     1.226    0.996      1.074e-002    0.796    5.582e+002    1.130e+001    
20.005   18.760   4.000       1.828         1.388     1.245    0.996      1.143e-002    0.783    6.392e+002    1.166e+001    
20.005   18.741   4.000       1.827         1.426     1.264    0.995      1.211e-002    0.770    7.366e+002    1.209e+001    
20.005   18.722   4.000       1.825         1.462     1.283    0.995      1.272e-002    0.758    7.928e+002    1.228e+001    
20.005   18.703   4.000       1.823         1.501     1.302    0.995      1.338e-002    0.746    8.724e+002    1.250e+001    
20.005   18.684   4.000       1.821         1.538     1.321    0.995      1.397e-002    0.735    8.772e+002    1.235e+001    
20.005   18.665   4.000       1.819         1.575     1.340    0.995      1.456e-002    0.723    9.123e+002    1.233e+001    
20.005   18.646   4.000       1.817         1.613     1.359    0.995      1.513e-002    0.713    8.972e+002    1.209e+001    
20.005   18.627   4.000       1.815         1.649     1.378    0.995      1.564e-002    0.702    9.164e+002    1.202e+001    
20.005   18.608   4.000       1.814         1.687     1.397    0.995      1.619e-002    0.692    9.050e+002    1.189e+001    
20.005   18.589   4.000       1.812         1.724     1.416    0.995      1.668e-002    0.682    9.133e+002    1.182e+001    
20.005   18.570   4.000       1.810         1.764     1.435    0.995      1.721e-002    0.672    8.665e+002    1.152e+001    
20.005   18.551   4.000       1.808         1.801     1.454    0.995      1.768e-002    0.663    8.769e+002    1.150e+001    
20.005   18.532   4.000       1.806         1.836     1.473    0.995      1.809e-002    0.653    8.991e+002    1.163e+001    
20.005   18.513   4.000       1.804         1.874     1.492    0.995      1.854e-002    0.644    8.837e+002    1.151e+001    
20.005   18.494   4.000       1.802         1.913     1.511    0.995      1.898e-002    0.636    9.092e+002    1.173e+001    
20.005   18.475   4.000       1.801         1.949     1.530    0.994      1.936e-002    0.627    9.177e+002    1.184e+001    
20.005   18.456   4.000       1.799         1.988     1.549    0.994      1.978e-002    0.619    9.588e+002    1.222e+001    
20.005   18.437   4.000       1.797         2.025     1.568    0.994      2.014e-002    0.611    9.934e+002    1.258e+001    
20.005   18.418   4.000       1.795         2.062     1.587    0.994      2.050e-002    0.603    1.055e+003    1.312e+001    
20.005   18.399   4.000       1.793         2.100     1.606    0.994      2.084e-002    0.595    1.094e+003    1.349e+001    
20.005   18.380   4.000       1.791         2.137     1.625    0.994      2.118e-002    0.587    1.116e+003    1.387e+001    
20.005   18.361   4.000       1.790         2.176     1.644    0.994      2.151e-002    0.580    1.145e+003    1.420e+001    
20.005   18.342   4.000       1.788         2.211     1.663    0.994      2.179e-002    0.573    1.220e+003    1.488e+001    
20.005   18.323   4.000       1.786         2.250     1.682    0.994      2.210e-002    0.566    1.274e+003    1.540e+001    
20.005   18.304   4.000       1.784         2.286     1.701    0.994      2.236e-002    0.559    1.305e+003    1.573e+001    
20.005   18.285   4.000       1.782         2.326     1.720    0.994      2.266e-002    0.552    1.286e+003    1.583e+001    
20.005   18.266   4.000       1.780         2.362     1.739    0.993      2.291e-002    0.546    1.341e+003    1.631e+001    
20.005   18.247   4.000       1.778         2.399     1.758    0.993      2.314e-002    0.539    1.327e+003    1.630e+001    
20.005   18.228   4.000       1.777         2.437     1.777    0.993      2.338e-002    0.533    1.332e+003    1.640e+001    
20.005   18.209   4.000       1.775         2.474     1.796    0.993      2.360e-002    0.527    1.327e+003    1.638e+001    
20.005   18.190   4.000       1.773         2.512     1.815    0.993      2.382e-002    0.521    1.329e+003    1.629e+001    
20.005   18.171   4.000       1.771         2.550     1.834    0.993      2.404e-002    0.515    1.308e+003    1.615e+001    
20.005   18.152   4.000       1.769         2.589     1.853    0.993      2.425e-002    0.509    1.329e+003    1.619e+001    
20.005   18.133   4.000       1.767         2.624     1.872    0.993      2.440e-002    0.503    1.389e+003    1.658e+001    
20.005   18.114   4.000       1.765         2.663     1.891    0.993      2.460e-002    0.497    1.371e+003    1.643e+001    
20.005   18.095   4.000       1.764         2.699     1.910    0.993      2.475e-002    0.492    1.405e+003    1.670e+001    
20.005   18.076   4.000       1.762         2.739     1.929    0.992      2.494e-002    0.487    1.426e+003    1.670e+001    
20.005   18.057   4.000       1.760         2.776     1.948    0.992      2.507e-002    0.481    1.446e+003    1.691e+001    
20.005   18.038   4.000       1.758         2.812     1.967    0.992      2.521e-002    0.476    1.516e+003    1.709e+001    
20.005   18.019   4.000       1.756         2.849     1.986    0.992      2.534e-002    0.471    1.531e+003    1.711e+001    
20.005   18.000   4.000       1.754         2.887     2.005    0.992      2.546e-002    0.466    1.542e+003    1.688e+001    
20.005   17.981   4.000       1.752         2.924     2.024    0.992      2.558e-002    0.461    1.548e+003    1.675e+001    
20.005   17.962   4.000       1.751         2.962     2.043    0.992      2.570e-002    0.457    1.565e+003    1.646e+001    
20.005   17.943   4.000       1.749         3.000     2.062    0.992      2.581e-002    0.452    1.557e+003    1.616e+001    
20.005   17.924   4.000       1.747         3.038     2.081    0.992      2.592e-002    0.447    1.546e+003    1.578e+001    
20.005   17.905   4.000       1.745         3.077     2.100    0.991      2.602e-002    0.443    1.541e+003    1.547e+001    
20.005   17.886   4.000       1.743         3.112     2.119    0.991      2.608e-002    0.438    1.562e+003    1.537e+001    
20.005   17.867   4.000       1.741         3.151     2.138    0.991      2.618e-002    0.434    1.543e+003    1.500e+001    
20.005   17.848   4.000       1.740         3.190     2.157    0.991      2.628e-002    0.430    1.554e+003    1.479e+001    
20.005   17.829   4.000       1.738         3.226     2.176    0.991      2.633e-002    0.426    1.553e+003    1.457e+001    
20.005   17.810   4.000       1.736         3.262     2.195    0.991      2.638e-002    0.421    1.543e+003    1.425e+001    
20.005   17.791   4.000       1.734         3.301     2.214    0.991      2.646e-002    0.417    1.532e+003    1.395e+001    
20.005   17.772   4.000       1.732         3.338     2.233    0.991      2.650e-002    0.413    1.536e+003    1.377e+001    
20.005   17.753   4.000       1.730         3.375     2.252    0.991      2.654e-002    0.409    1.552e+003    1.366e+001    
20.005   17.734   4.000       1.728         3.415     2.271    0.990      2.662e-002    0.406    1.590e+003    1.366e+001    
20.005   17.715   4.000       1.727         3.452     2.290    0.990      2.666e-002    0.402    1.557e+003    1.347e+001    
20.005   17.696   4.000       1.725         3.489     2.309    0.990      2.669e-002    0.398    1.557e+003    1.337e+001    
20.005   17.677   4.000       1.723         3.527     2.328    0.990      2.672e-002    0.394    1.561e+003    1.327e+001    
20.005   17.658   4.000       1.721         3.565     2.347    0.990      2.675e-002    0.391    1.575e+003    1.331e+001    
20.005   17.639   4.000       1.719         3.602     2.366    0.990      2.678e-002    0.387    1.571e+003    1.315e+001    
20.005   17.620   4.000       1.717         3.637     2.385    0.990      2.676e-002    0.384    1.598e+003    1.323e+001    
20.005   17.601   4.000       1.715         3.675     2.404    0.989      2.679e-002    0.380    1.594e+003    1.311e+001    
20.005   17.582   4.000       1.714         3.713     2.423    0.989      2.681e-002    0.377    1.583e+003    1.297e+001    
20.005   17.563   4.000       1.712         3.752     2.442    0.989      2.683e-002    0.374    1.567e+003    1.286e+001    
20.005   17.544   4.000       1.710         3.787     2.461    0.989      2.681e-002    0.370    1.592e+003    1.283e+001    
20.005   17.525   4.000       1.708         3.826     2.480    0.989      2.683e-002    0.367    1.603e+003    1.283e+001    
20.005   17.506   4.000       1.706         3.865     2.499    0.989      2.684e-002    0.364    1.591e+003    1.269e+001    
20.005   17.487   4.000       1.704         3.901     2.518    0.989      2.682e-002    0.361    1.602e+003    1.266e+001    
20.005   17.468   4.000       1.702         3.940     2.537    0.988      2.683e-002    0.358    1.586e+003    1.249e+001    
20.005   17.449   4.000       1.701         3.976     2.556    0.988      2.681e-002    0.355    1.606e+003    1.261e+001    
18.010   17.059   4.000       1.497         1.166     0.951    0.996      9.150e-003    0.839    3.237e+002    2.178e+001    
18.010   17.042   4.000       1.495         1.201     0.968    0.996      1.012e-002    0.823    4.212e+002    2.159e+001    
18.010   17.025   4.000       1.494         1.234     0.985    0.996      1.101e-002    0.808    5.502e+002    2.344e+001    
18.010   17.007   4.000       1.492         1.268     1.003    0.996      1.188e-002    0.793    6.705e+002    2.483e+001    
18.010   16.990   4.000       1.491         1.302     1.020    0.996      1.274e-002    0.779    8.156e+002    2.533e+001    
18.010   16.973   4.000       1.489         1.336     1.037    0.996      1.359e-002    0.765    9.671e+002    2.636e+001    
18.010   16.956   4.000       1.488         1.371     1.054    0.996      1.443e-002    0.752    1.202e+003    2.831e+001    
18.010   16.939   4.000       1.486         1.404     1.071    0.996      1.518e-002    0.740    1.318e+003    2.940e+001    
18.010   16.921   4.000       1.485         1.438     1.089    0.996      1.591e-002    0.727    1.526e+003    3.094e+001    
18.010   16.904   4.000       1.483         1.471     1.106    0.996      1.663e-002    0.715    1.694e+003    3.136e+001    
18.010   16.887   4.000       1.482         1.506     1.123    0.996      1.734e-002    0.703    1.680e+003    3.049e+001    
18.010   16.870   4.000       1.480         1.540     1.140    0.995      1.804e-002    0.692    1.741e+003    3.026e+001    
18.010   16.853   4.000       1.479         1.573     1.157    0.995      1.866e-002    0.681    1.810e+003    3.023e+001    
18.010   16.835   4.000       1.477         1.608     1.175    0.995      1.931e-002    0.670    1.738e+003    2.956e+001    
18.010   16.818   4.000       1.476         1.641     1.192    0.995      1.991e-002    0.660    1.748e+003    2.966e+001    
18.010   16.801   4.000       1.474         1.674     1.209    0.995      2.048e-002    0.650    1.700e+003    2.960e+001    
18.010   16.784   4.000       1.473         1.708     1.226    0.995      2.105e-002    0.640    1.659e+003    2.906e+001    
18.010   16.767   4.000       1.471         1.742     1.243    0.995      2.160e-002    0.631    1.642e+003    2.874e+001    
18.010   16.749   4.000       1.470         1.777     1.261    0.995      2.213e-002    0.621    1.602e+003    2.835e+001    
18.010   16.732   4.000       1.468         1.809     1.278    0.995      2.259e-002    0.612    1.569e+003    2.813e+001    
18.010   16.715   4.000       1.467         1.844     1.295    0.995      2.311e-002    0.603    1.613e+003    2.873e+001    
18.010   16.698   4.000       1.465         1.877     1.312    0.995      2.355e-002    0.595    1.570e+003    2.873e+001    
18.010   16.681   4.000       1.464         1.910     1.329    0.995      2.398e-002    0.587    1.681e+003    2.993e+001    
18.010   16.663   4.000       1.462         1.946     1.347    0.995      2.444e-002    0.578    1.609e+003    2.995e+001    
18.010   16.646   4.000       1.461         1.980     1.364    0.994      2.485e-002    0.571    1.679e+003    3.022e+001    
18.010   16.629   4.000       1.459         2.014     1.381    0.994      2.525e-002    0.563    1.692e+003    3.007e+001    
18.010   16.612   4.000       1.458         2.045     1.398    0.994      2.558e-002    0.556    1.791e+003    3.053e+001    
18.010   16.595   4.000       1.456         2.079     1.415    0.994      2.596e-002    0.548    1.836e+003    3.067e+001    
18.010   16.577   4.000       1.455         2.114     1.433    0.994      2.631e-002    0.541    1.904e+003    3.139e+001    
18.010   16.560   4.000       1.453         2.146     1.450    0.994      2.661e-002    0.534    1.989e+003    3.248e+001    
18.010   16.543   4.000       1.452         2.182     1.467    0.994      2.696e-002    0.527    2.101e+003    3.345e+001    
18.010   16.526   4.000       1.450         2.214     1.484    0.994      2.724e-002    0.521    2.118e+003    3.373e+001    
18.010   16.509   4.000       1.449         2.250     1.501    0.994      2.757e-002    0.514    2.194e+003    3.379e+001    
18.010   16.491   4.000       1.447         2.283     1.519    0.994      2.782e-002    0.508    2.203e+003    3.349e+001    
18.010   16.474   4.000       1.445         2.316     1.536    0.994      2.807e-002    0.501    2.287e+003    3.370e+001    
18.010   16.457   4.000       1.444         2.350     1.553    0.994      2.832e-002    0.495    2.250e+003    3.358e+001    
18.010   16.440   4.000       1.442         2.384     1.570    0.993      2.857e-002    0.490    2.241e+003    3.379e+001    
18.010   16.423   4.000       1.441         2.418     1.587    0.993      2.880e-002    0.484    2.275e+003    3.431e+001    
18.010   16.405   4.000       1.439         2.452     1.605    0.993      2.901e-002    0.478    2.224e+003    3.435e+001    
18.010   16.388   4.000       1.438         2.487     1.622    0.993      2.923e-002    0.472    2.220e+003    3.471e+001    
18.010   16.371   4.000       1.436         2.519     1.639    0.993      2.939e-002    0.467    2.206e+003    3.413e+001    
18.010   16.354   4.000       1.435         2.554     1.656    0.993      2.959e-002    0.462    2.205e+003    3.368e+001    
18.010   16.337   4.000       1.433         2.586     1.673    0.993      2.974e-002    0.457    2.239e+003    3.341e+001    
18.010   16.319   4.000       1.432         2.621     1.691    0.993      2.991e-002    0.451    2.290e+003    3.341e+001    
18.010   16.302   4.000       1.430         2.654     1.708    0.993      3.005e-002    0.446    2.376e+003    3.394e+001    
18.010   16.285   4.000       1.429         2.690     1.725    0.993      3.023e-002    0.441    2.331e+003    3.370e+001    
18.010   16.268   4.000       1.427         2.722     1.742    0.992      3.036e-002    0.437    2.359e+003    3.404e+001    
18.010   16.251   4.000       1.426         2.756     1.759    0.992      3.048e-002    0.432    2.408e+003    3.452e+001    
18.010   16.233   4.000       1.424         2.789     1.777    0.992      3.057e-002    0.427    2.453e+003    3.475e+001    
18.010   16.216   4.000       1.423         2.822     1.794    0.992      3.068e-002    0.423    2.478e+003    3.493e+001    
18.010   16.199   4.000       1.421         2.856     1.811    0.992      3.079e-002    0.418    2.486e+003    3.521e+001    
18.010   16.182   4.000       1.420         2.890     1.828    0.992      3.089e-002    0.414    2.466e+003    3.549e+001    
18.010   16.164   4.000       1.418         2.924     1.846    0.992      3.096e-002    0.409    2.499e+003    3.602e+001    
18.010   16.147   4.000       1.417         2.958     1.863    0.992      3.106e-002    0.405    2.423e+003    3.587e+001    
18.010   16.130   4.000       1.415         2.993     1.880    0.992      3.115e-002    0.401    2.518e+003    3.691e+001    
18.010   16.113   4.000       1.414         3.028     1.897    0.991      3.123e-002    0.397    2.463e+003    3.636e+001    
18.010   16.096   4.000       1.412         3.059     1.914    0.991      3.126e-002    0.393    2.453e+003    3.617e+001    
18.010   16.078   4.000       1.411         3.094     1.932    0.991      3.132e-002    0.389    2.488e+003    3.635e+001    
18.010   16.061   4.000       1.409         3.126     1.949    0.991      3.135e-002    0.385    2.448e+003    3.604e+001    
18.010   16.044   4.000       1.408         3.161     1.966    0.991      3.142e-002    0.382    2.447e+003    3.624e+001    
18.010   16.027   4.000       1.406         3.193     1.983    0.991      3.144e-002    0.378    2.419e+003    3.589e+001    
18.010   16.010   4.000       1.405         3.229     2.000    0.991      3.151e-002    0.374    2.350e+003    3.545e+001    
18.010   15.992   4.000       1.403         3.262     2.018    0.991      3.150e-002    0.371    2.416e+003    3.591e+001    
18.010   15.975   4.000       1.402         3.298     2.035    0.990      3.156e-002    0.367    2.414e+003    3.571e+001    
18.010   15.958   4.000       1.400         3.331     2.052    0.990      3.157e-002    0.364    2.411e+003    3.575e+001    
18.010   15.941   4.000       1.399         3.364     2.069    0.990      3.158e-002    0.360    2.463e+003    3.639e+001    
18.010   15.924   4.000       1.397         3.397     2.086    0.990      3.158e-002    0.357    2.437e+003    3.662e+001    
18.010   15.906   4.000       1.396         3.430     2.104    0.990      3.156e-002    0.353    2.379e+003    3.691e+001    
18.010   15.889   4.000       1.394         3.467     2.121    0.990      3.161e-002    0.350    2.348e+003    3.720e+001    
18.010   15.872   4.000       1.393         3.501     2.138    0.990      3.161e-002    0.347    2.414e+003    3.831e+001    
18.010   15.855   4.000       1.391         3.534     2.155    0.990      3.161e-002    0.344    2.464e+003    3.863e+001    
18.010   15.838   4.000       1.390         3.568     2.172    0.989      3.161e-002    0.341    2.430e+003    3.718e+001    
18.010   15.820   4.000       1.388         3.602     2.190    0.989      3.158e-002    0.338    2.410e+003    3.586e+001    
18.010   15.803   4.000       1.387         3.633     2.207    0.989      3.153e-002    0.335    2.424e+003    3.490e+001    
18.010   15.786   4.000       1.385         3.667     2.224    0.989      3.152e-002    0.332    2.439e+003    3.408e+001    
18.010   15.769   4.000       1.384         3.702     2.241    0.989      3.151e-002    0.329    2.389e+003    3.346e+001    
18.010   15.752   4.000       1.382         3.736     2.258    0.989      3.150e-002    0.326    2.386e+003    3.341e+001    
18.010   15.734   4.000       1.381         3.767     2.276    0.989      3.142e-002    0.323    2.318e+003    3.293e+001    
18.010   15.717   4.000       1.379         3.803     2.293    0.988      3.141e-002    0.320    2.405e+003    3.346e+001    
18.010   15.700   4.000       1.378         3.838     2.310    0.988      3.139e-002    0.318    2.393e+003    3.328e+001    
18.010   15.683   4.000       1.376         3.869     2.327    0.988      3.134e-002    0.315    2.402e+003    3.360e+001    
18.010   15.666   4.000       1.375         3.905     2.344    0.988      3.132e-002    0.312    2.386e+003    3.378e+001    
18.010   15.648   4.000       1.373         3.940     2.362    0.988      3.128e-002    0.310    2.361e+003    3.403e+001    
18.010   15.631   4.000       1.372         3.972     2.379    0.988      3.122e-002    0.307    2.318e+003    3.407e+001    
16.000   15.216   4.000       1.186         1.166     0.784    0.996      1.225e-002    0.806    8.417e+002    4.583e+001    
16.000   15.201   4.000       1.185         1.195     0.799    0.996      1.328e-002    0.790    8.926e+002    4.161e+001    
16.000   15.185   4.000       1.184         1.225     0.815    0.996      1.437e-002    0.774    1.090e+003    4.069e+001    
16.000   15.170   4.000       1.183         1.257     0.830    0.996      1.546e-002    0.759    1.379e+003    4.111e+001    
16.000   15.155   4.000       1.181         1.286     0.845    0.996      1.644e-002    0.745    1.625e+003    4.182e+001    
16.000   15.139   4.000       1.180         1.316     0.861    0.996      1.738e-002    0.730    1.882e+003    4.275e+001    
16.000   15.124   4.000       1.179         1.346     0.876    0.996      1.833e-002    0.717    2.350e+003    4.539e+001    
16.000   15.108   4.000       1.178         1.376     0.892    0.996      1.924e-002    0.704    2.667e+003    4.702e+001    
16.000   15.093   4.000       1.177         1.407     0.907    0.996      2.014e-002    0.691    2.957e+003    4.842e+001    
16.000   15.078   4.000       1.175         1.435     0.922    0.996      2.094e-002    0.679    3.401e+003    5.065e+001    
16.000   15.062   4.000       1.174         1.467     0.938    0.996      2.180e-002    0.667    3.525e+003    5.080e+001    
16.000   15.047   4.000       1.173         1.496     0.953    0.996      2.256e-002    0.656    3.594e+003    5.066e+001    
16.000   15.032   4.000       1.172         1.525     0.968    0.996      2.331e-002    0.645    3.662e+003    5.029e+001    
16.000   15.016   4.000       1.171         1.555     0.984    0.996      2.402e-002    0.634    3.629e+003    4.944e+001    
16.000   15.001   4.000       1.169         1.585     0.999    0.995      2.474e-002    0.624    3.508e+003    4.812e+001    
16.000   14.986   4.000       1.168         1.615     1.014    0.995      2.544e-002    0.614    3.445e+003    4.722e+001    
16.000   14.970   4.000       1.167         1.646     1.030    0.995      2.610e-002    0.604    3.355e+003    4.623e+001    
16.000   14.955   4.000       1.166         1.677     1.045    0.995      2.677e-002    0.594    3.244e+003    4.517e+001    
16.000   14.939   4.000       1.165         1.706     1.061    0.995      2.731e-002    0.585    3.020e+003    4.357e+001    
16.000   14.924   4.000       1.163         1.737     1.076    0.995      2.795e-002    0.576    2.972e+003    4.294e+001    
16.000   14.909   4.000       1.162         1.766     1.091    0.995      2.849e-002    0.568    2.956e+003    4.257e+001    
16.000   14.893   4.000       1.161         1.796     1.107    0.995      2.899e-002    0.559    2.865e+003    4.185e+001    
16.000   14.878   4.000       1.160         1.825     1.122    0.995      2.950e-002    0.551    2.892e+003    4.188e+001    
16.000   14.863   4.000       1.159         1.855     1.137    0.995      2.999e-002    0.543    2.867e+003    4.158e+001    
16.000   14.847   4.000       1.157         1.885     1.153    0.995      3.045e-002    0.535    2.822e+003    4.122e+001    
16.000   14.832   4.000       1.156         1.915     1.168    0.995      3.092e-002    0.527    2.908e+003    4.174e+001    
16.000   14.817   4.000       1.155         1.946     1.183    0.995      3.138e-002    0.520    2.729e+003    4.055e+001    
16.000   14.801   4.000       1.154         1.977     1.199    0.995      3.180e-002    0.513    2.905e+003    4.167e+001    
16.000   14.786   4.000       1.153         2.005     1.214    0.994      3.215e-002    0.506    2.908e+003    4.175e+001    
16.000   14.771   4.000       1.151         2.036     1.229    0.994      3.257e-002    0.499    2.996e+003    4.233e+001    
16.000   14.755   4.000       1.150         2.065     1.245    0.994      3.287e-002    0.492    3.060e+003    4.280e+001    
16.000   14.740   4.000       1.149         2.097     1.260    0.994      3.327e-002    0.486    3.298e+003    4.424e+001    
16.000   14.724   4.000       1.148         2.126     1.276    0.994      3.355e-002    0.479    3.340e+003    4.463e+001    
16.000   14.709   4.000       1.147         2.155     1.291    0.994      3.385e-002    0.473    3.462e+003    4.539e+001    
16.000   14.694   4.000       1.145         2.187     1.306    0.994      3.422e-002    0.467    3.602e+003    4.624e+001    
16.000   14.678   4.000       1.144         2.217     1.322    0.994      3.447e-002    0.461    3.685e+003    4.685e+001    
16.000   14.663   4.000       1.143         2.247     1.337    0.994      3.474e-002    0.456    3.827e+003    4.760e+001    
16.000   14.648   4.000       1.142         2.277     1.352    0.994      3.501e-002    0.450    3.792e+003    4.731e+001    
16.000   14.632   4.000       1.141         2.307     1.368    0.994      3.523e-002    0.444    3.749e+003    4.684e+001    
16.000   14.617   4.000       1.139         2.338     1.383    0.994      3.548e-002    0.439    3.737e+003    4.663e+001    
16.000   14.602   4.000       1.138         2.365     1.398    0.993      3.564e-002    0.434    3.880e+003    4.713e+001    
16.000   14.586   4.000       1.137         2.396     1.414    0.993      3.584e-002    0.428    3.728e+003    4.610e+001    
16.000   14.571   4.000       1.136         2.427     1.429    0.993      3.606e-002    0.424    3.731e+003    4.599e+001    
16.000   14.555   4.000       1.135         2.455     1.445    0.993      3.617e-002    0.418    3.737e+003    4.584e+001    
16.000   14.540   4.000       1.133         2.487     1.460    0.993      3.638e-002    0.414    3.673e+003    4.529e+001    
16.000   14.525   4.000       1.132         2.515     1.475    0.993      3.651e-002    0.409    3.625e+003    4.503e+001    
16.000   14.509   4.000       1.131         2.547     1.491    0.993      3.667e-002    0.404    3.662e+003    4.519e+001    
16.000   14.494   4.000       1.130         2.576     1.506    0.993      3.679e-002    0.400    3.675e+003    4.521e+001    
16.000   14.479   4.000       1.129         2.608     1.521    0.993      3.697e-002    0.395    3.651e+003    4.505e+001    
16.000   14.463   4.000       1.127         2.637     1.537    0.993      3.705e-002    0.391    3.806e+003    4.593e+001    
16.000   14.448   4.000       1.126         2.667     1.552    0.992      3.715e-002    0.387    3.766e+003    4.560e+001    
16.000   14.433   4.000       1.125         2.696     1.567    0.992      3.725e-002    0.383    3.826e+003    4.599e+001    
16.000   14.417   4.000       1.124         2.726     1.583    0.992      3.730e-002    0.378    3.758e+003    4.559e+001    
16.000   14.402   4.000       1.123         2.756     1.598    0.992      3.739e-002    0.374    3.990e+003    4.686e+001    
16.000   14.386   4.000       1.121         2.786     1.614    0.992      3.744e-002    0.370    3.875e+003    4.621e+001    
16.000   14.371   4.000       1.120         2.816     1.629    0.992      3.752e-002    0.366    3.888e+003    4.625e+001    
16.000   14.356   4.000       1.119         2.846     1.644    0.992      3.759e-002    0.363    3.970e+003    4.659e+001    
16.000   14.340   4.000       1.118         2.876     1.660    0.992      3.763e-002    0.359    4.053e+003    4.703e+001    
16.000   14.325   4.000       1.117         2.907     1.675    0.992      3.770e-002    0.355    4.020e+003    4.672e+001    
16.000   14.310   4.000       1.115         2.938     1.690    0.991      3.776e-002    0.352    3.951e+003    4.616e+001    
16.000   14.294   4.000       1.114         2.969     1.706    0.991      3.778e-002    0.348    3.920e+003    4.584e+001    
16.000   14.279   4.000       1.113         2.996     1.721    0.991      3.778e-002    0.345    3.909e+003    4.572e+001    
16.000   14.264   4.000       1.112         3.028     1.736    0.991      3.783e-002    0.341    3.910e+003    4.560e+001    
16.000   14.248   4.000       1.111         3.056     1.752    0.991      3.778e-002    0.338    3.869e+003    4.528e+001    
16.000   14.233   4.000       1.109         3.087     1.767    0.991      3.783e-002    0.335    3.830e+003    4.496e+001    
16.000   14.218   4.000       1.108         3.119     1.782    0.991      3.787e-002    0.331    3.796e+003    4.471e+001    
16.000   14.202   4.000       1.107         3.147     1.798    0.991      3.781e-002    0.328    3.819e+003    4.470e+001    
16.000   14.187   4.000       1.106         3.176     1.813    0.990      3.779e-002    0.325    3.745e+003    4.419e+001    
16.000   14.171   4.000       1.105         3.208     1.829    0.990      3.779e-002    0.322    3.746e+003    4.407e+001    
16.000   14.156   4.000       1.103         3.236     1.844    0.990      3.777e-002    0.319    3.693e+003    4.370e+001    
16.000   14.141   4.000       1.102         3.269     1.859    0.990      3.779e-002    0.316    3.686e+003    4.371e+001    
16.000   14.125   4.000       1.101         3.298     1.875    0.990      3.773e-002    0.313    3.696e+003    4.359e+001    
16.000   14.110   4.000       1.100         3.327     1.890    0.990      3.770e-002    0.310    3.670e+003    4.337e+001    
16.000   14.095   4.000       1.099         3.356     1.905    0.990      3.766e-002    0.307    3.648e+003    4.320e+001    
16.000   14.079   4.000       1.097         3.386     1.921    0.989      3.760e-002    0.304    3.632e+003    4.314e+001    
16.000   14.064   4.000       1.096         3.419     1.936    0.989      3.761e-002    0.302    3.587e+003    4.295e+001    
16.000   14.049   4.000       1.095         3.448     1.951    0.989      3.757e-002    0.299    3.614e+003    4.302e+001    
16.000   14.033   4.000       1.094         3.478     1.967    0.989      3.750e-002    0.296    3.657e+003    4.323e+001    
16.000   14.018   4.000       1.093         3.508     1.982    0.989      3.746e-002    0.294    3.693e+003    4.340e+001    
16.000   14.002   4.000       1.091         3.538     1.998    0.989      3.739e-002    0.291    3.665e+003    4.320e+001    
16.000   13.987   4.000       1.090         3.568     2.013    0.989      3.734e-002    0.289    3.586e+003    4.269e+001    
16.000   13.972   4.000       1.089         3.599     2.028    0.988      3.730e-002    0.286    3.597e+003    4.278e+001    
16.000   13.956   4.000       1.088         3.629     2.044    0.988      3.722e-002    0.284    3.622e+003    4.280e+001    
16.000   13.941   4.000       1.087         3.656     2.059    0.988      3.712e-002    0.281    3.575e+003    4.256e+001    
16.000   13.926   4.000       1.086         3.686     2.074    0.988      3.707e-002    0.279    3.602e+003    4.263e+001    
16.000   13.910   4.000       1.084         3.717     2.090    0.988      3.699e-002    0.276    3.642e+003    4.283e+001    
16.000   13.895   4.000       1.083         3.748     2.105    0.988      3.694e-002    0.274    3.618e+003    4.250e+001    
16.000   13.880   4.000       1.082         3.779     2.120    0.988      3.689e-002    0.272    3.589e+003    4.236e+001    
16.000   13.864   4.000       1.081         3.806     2.136    0.987      3.676e-002    0.270    3.469e+003    4.160e+001    
16.000   13.849   4.000       1.080         3.838     2.151    0.987      3.671e-002    0.267    3.547e+003    4.197e+001    
16.000   13.833   4.000       1.078         3.869     2.167    0.987      3.663e-002    0.265    3.542e+003    4.200e+001    
16.000   13.818   4.000       1.077         3.897     2.182    0.987      3.653e-002    0.263    3.500e+003    4.167e+001    
16.000   13.803   4.000       1.076         3.928     2.197    0.987      3.647e-002    0.261    3.442e+003    4.140e+001    
16.000   13.787   4.000       1.075         3.956     2.213    0.987      3.634e-002    0.259    3.512e+003    4.166e+001    
16.000   13.772   4.000       1.074         3.988     2.228    0.986      3.629e-002    0.257    3.403e+003    4.116e+001    
12.987   12.419   4.000       0.786         1.160     0.568    0.997      1.955e-002    0.737    2.107e+003    1.224e+002    
12.987   12.406   4.000       0.785         1.186     0.581    0.997      2.108e-002    0.720    2.317e+003    1.117e+002    
12.987   12.394   4.000       0.784         1.210     0.593    0.996      2.245e-002    0.705    2.783e+003    1.083e+002    
12.987   12.381   4.000       0.783         1.234     0.606    0.996      2.378e-002    0.689    3.258e+003    1.082e+002    
12.987   12.369   4.000       0.783         1.259     0.618    0.996      2.510e-002    0.675    3.890e+003    1.091e+002    
12.987   12.356   4.000       0.782         1.284     0.631    0.996      2.637e-002    0.660    4.522e+003    1.120e+002    
12.987   12.343   4.000       0.781         1.306     0.644    0.996      2.746e-002    0.646    5.419e+003    1.160e+002    
12.987   12.331   4.000       0.780         1.332     0.656    0.996      2.871e-002    0.634    6.237e+003    1.206e+002    
12.987   12.318   4.000       0.779         1.355     0.669    0.996      2.975e-002    0.621    7.465e+003    1.268e+002    
12.987   12.306   4.000       0.779         1.381     0.681    0.996      3.094e-002    0.609    8.371e+003    1.320e+002    
12.987   12.293   4.000       0.778         1.404     0.694    0.996      3.193e-002    0.597    9.350e+003    1.365e+002    
12.987   12.281   4.000       0.777         1.428     0.706    0.996      3.293e-002    0.586    1.024e+004    1.411e+002    
12.987   12.268   4.000       0.776         1.454     0.719    0.996      3.402e-002    0.575    1.092e+004    1.430e+002    
12.987   12.255   4.000       0.775         1.479     0.732    0.996      3.493e-002    0.564    1.119e+004    1.439e+002    
12.987   12.243   4.000       0.775         1.503     0.744    0.996      3.586e-002    0.555    1.166e+004    1.439e+002    
12.987   12.230   4.000       0.774         1.525     0.757    0.996      3.658e-002    0.545    1.142e+004    1.417e+002    
12.987   12.218   4.000       0.773         1.550     0.769    0.996      3.746e-002    0.536    1.070e+004    1.357e+002    
12.987   12.205   4.000       0.772         1.575     0.782    0.996      3.828e-002    0.526    1.078e+004    1.344e+002    
12.987   12.193   4.000       0.771         1.600     0.794    0.996      3.912e-002    0.518    9.915e+003    1.282e+002    
12.987   12.180   4.000       0.771         1.623     0.807    0.996      3.976e-002    0.509    9.699e+003    1.256e+002    
12.987   12.168   4.000       0.770         1.649     0.819    0.995      4.055e-002    0.501    9.126e+003    1.213e+002    
12.987   12.155   4.000       0.769         1.672     0.832    0.995      4.115e-002    0.493    8.790e+003    1.185e+002    
12.987   12.142   4.000       0.768         1.698     0.845    0.995      4.185e-002    0.484    8.226e+003    1.142e+002    
12.987   12.130   4.000       0.767         1.721     0.857    0.995      4.245e-002    0.477    7.899e+003    1.115e+002    
12.987   12.117   4.000       0.767         1.745     0.870    0.995      4.299e-002    0.470    7.627e+003    1.091e+002    
12.987   12.105   4.000       0.766         1.772     0.882    0.995      4.368e-002    0.463    7.235e+003    1.062e+002    
12.987   12.092   4.000       0.765         1.796     0.895    0.995      4.418e-002    0.456    7.346e+003    1.065e+002    
12.987   12.080   4.000       0.764         1.820     0.907    0.995      4.471e-002    0.449    6.994e+003    1.039e+002    
12.987   12.067   4.000       0.763         1.844     0.920    0.995      4.517e-002    0.442    7.075e+003    1.040e+002    
12.987   12.054   4.000       0.763         1.869     0.933    0.995      4.562e-002    0.436    6.848e+003    1.025e+002    
12.987   12.042   4.000       0.762         1.893     0.945    0.995      4.610e-002    0.430    6.817e+003    1.022e+002    
12.987   12.029   4.000       0.761         1.915     0.958    0.995      4.639e-002    0.423    6.720e+003    1.009e+002    
12.987   12.017   4.000       0.760         1.940     0.970    0.995      4.684e-002    0.418    6.727e+003    1.015e+002    
12.987   12.004   4.000       0.760         1.966     0.983    0.994      4.722e-002    0.412    6.603e+003    1.000e+002    
12.987   11.992   4.000       0.759         1.991     0.995    0.994      4.764e-002    0.406    6.865e+003    1.021e+002    
12.987   11.979   4.000       0.758         2.014     1.008    0.994      4.787e-002    0.401    6.879e+003    1.018e+002    
12.987   11.966   4.000       0.757         2.039     1.021    0.994      4.821e-002    0.395    6.933e+003    1.027e+002    
12.987   11.954   4.000       0.756         2.062     1.033    0.994      4.848e-002    0.390    7.181e+003    1.040e+002    
12.987   11.941   4.000       0.756         2.088     1.046    0.994      4.879e-002    0.385    7.527e+003    1.068e+002    
12.987   11.929   4.000       0.755         2.111     1.058    0.994      4.903e-002    0.380    7.534e+003    1.064e+002    
12.987   11.916   4.000       0.754         2.137     1.071    0.994      4.932e-002    0.375    7.745e+003    1.083e+002    
12.987   11.904   4.000       0.753         2.161     1.083    0.994      4.954e-002    0.371    8.059e+003    1.101e+002    
12.987   11.891   4.000       0.752         2.184     1.096    0.994      4.969e-002    0.366    8.294e+003    1.118e+002    
12.987   11.878   4.000       0.752         2.208     1.109    0.994      4.984e-002    0.361    8.379e+003    1.121e+002    
12.987   11.866   4.000       0.751         2.235     1.121    0.994      5.014e-002    0.357    8.568e+003    1.133e+002    
12.987   11.853   4.000       0.750         2.259     1.134    0.993      5.026e-002    0.352    8.694e+003    1.140e+002    
12.987   11.841   4.000       0.749         2.283     1.146    0.993      5.044e-002    0.348    8.729e+003    1.139e+002    
12.987   11.828   4.000       0.748         2.307     1.159    0.993      5.054e-002    0.344    8.420e+003    1.117e+002    
12.987   11.816   4.000       0.748         2.332     1.171    0.993      5.070e-002    0.340    8.498e+003    1.118e+002    
12.987   11.803   4.000       0.747         2.356     1.184    0.993      5.079e-002    0.336    8.463e+003    1.114e+002    
12.987   11.790   4.000       0.746         2.381     1.197    0.993      5.087e-002    0.332    8.557e+003    1.108e+002    
12.987   11.778   4.000       0.745         2.406     1.209    0.993      5.101e-002    0.328    8.339e+003    1.097e+002    
12.987   11.765   4.000       0.744         2.427     1.222    0.993      5.097e-002    0.325    8.209e+003    1.084e+002    
12.987   11.753   4.000       0.744         2.452     1.234    0.993      5.109e-002    0.321    8.122e+003    1.084e+002    
12.987   11.740   4.000       0.743         2.477     1.247    0.993      5.115e-002    0.317    7.889e+003    1.071e+002    
12.987   11.728   4.000       0.742         2.503     1.259    0.992      5.125e-002    0.314    7.973e+003    1.079e+002    
12.987   11.715   4.000       0.741         2.525     1.272    0.992      5.120e-002    0.311    7.996e+003    1.077e+002    
12.987   11.702   4.000       0.740         2.550     1.285    0.992      5.123e-002    0.307    7.641e+003    1.054e+002    
12.987   11.690   4.000       0.740         2.576     1.297    0.992      5.132e-002    0.304    7.605e+003    1.048e+002    
12.987   11.677   4.000       0.739         2.599     1.310    0.992      5.125e-002    0.301    7.721e+003    1.057e+002    
12.987   11.665   4.000       0.738         2.624     1.322    0.992      5.133e-002    0.298    7.669e+003    1.052e+002    
12.987   11.652   4.000       0.737         2.647     1.335    0.992      5.126e-002    0.294    7.796e+003    1.061e+002    
12.987   11.640   4.000       0.736         2.673     1.347    0.992      5.132e-002    0.291    7.980e+003    1.071e+002    
12.987   11.627   4.000       0.736         2.696     1.360    0.992      5.124e-002    0.288    7.903e+003    1.069e+002    
12.987   11.614   4.000       0.735         2.722     1.373    0.991      5.124e-002    0.285    7.794e+003    1.063e+002    
12.987   11.602   4.000       0.734         2.746     1.385    0.991      5.121e-002    0.282    8.031e+003    1.074e+002    
12.987   11.589   4.000       0.733         2.769     1.398    0.991      5.111e-002    0.279    8.221e+003    1.088e+002    
12.987   11.577   4.000       0.732         2.796     1.410    0.991      5.116e-002    0.277    8.140e+003    1.079e+002    
12.987   11.564   4.000       0.732         2.819     1.423    0.991      5.106e-002    0.274    8.104e+003    1.078e+002    
12.987   11.552   4.000       0.731         2.843     1.435    0.991      5.101e-002    0.271    8.232e+003    1.082e+002    
12.987   11.539   4.000       0.730         2.866     1.448    0.991      5.091e-002    0.269    8.320e+003    1.085e+002    
12.987   11.527   4.000       0.729         2.893     1.460    0.991      5.094e-002    0.266    8.139e+003    1.071e+002    
12.987   11.514   4.000       0.729         2.917     1.473    0.990      5.083e-002    0.264    7.917e+003    1.056e+002    
12.987   11.501   4.000       0.728         2.941     1.486    0.990      5.072e-002    0.261    7.751e+003    1.043e+002    
12.987   11.489   4.000       0.727         2.965     1.498    0.990      5.066e-002    0.259    7.792e+003    1.042e+002    
12.987   11.476   4.000       0.726         2.989     1.511    0.990      5.054e-002    0.256    7.661e+003    1.034e+002    
12.987   11.464   4.000       0.725         3.014     1.523    0.990      5.048e-002    0.254    7.490e+003    1.018e+002    
12.987   11.451   4.000       0.725         3.038     1.536    0.990      5.036e-002    0.251    7.484e+003    1.019e+002    
12.987   11.439   4.000       0.724         3.063     1.548    0.990      5.029e-002    0.249    7.437e+003    1.005e+002    
12.987   11.426   4.000       0.723         3.087     1.561    0.989      5.017e-002    0.247    7.387e+003    9.986e+001    
12.987   11.413   4.000       0.722         3.112     1.574    0.989      5.005e-002    0.244    7.347e+003    9.870e+001    
12.987   11.401   4.000       0.721         3.136     1.586    0.989      4.998e-002    0.242    7.342e+003    9.816e+001    
12.987   11.388   4.000       0.721         3.161     1.599    0.989      4.985e-002    0.240    7.012e+003    9.594e+001    
12.987   11.376   4.000       0.720         3.183     1.611    0.989      4.970e-002    0.238    7.250e+003    9.721e+001    
12.987   11.363   4.000       0.719         3.208     1.624    0.989      4.958e-002    0.236    6.878e+003    9.505e+001    
12.987   11.351   4.000       0.718         3.233     1.636    0.989      4.950e-002    0.234    6.972e+003    9.500e+001    
12.987   11.338   4.000       0.717         3.258     1.649    0.988      4.937e-002    0.232    6.868e+003    9.467e+001    
12.987   11.325   4.000       0.717         3.283     1.662    0.988      4.924e-002    0.230    6.845e+003    9.408e+001    
12.987   11.313   4.000       0.716         3.305     1.674    0.988      4.909e-002    0.228    6.946e+003    9.477e+001    
12.987   11.300   4.000       0.715         3.331     1.687    0.988      4.896e-002    0.226    6.798e+003    9.357e+001    
12.987   11.288   4.000       0.714         3.356     1.699    0.988      4.888e-002    0.224    6.809e+003    9.370e+001    
12.987   11.275   4.000       0.713         3.378     1.712    0.988      4.868e-002    0.222    6.765e+003    9.330e+001    
12.987   11.263   4.000       0.713         3.404     1.724    0.988      4.859e-002    0.220    6.649e+003    9.267e+001    
12.987   11.250   4.000       0.712         3.430     1.737    0.987      4.846e-002    0.218    6.694e+003    9.292e+001    
12.987   11.237   4.000       0.711         3.452     1.750    0.987      4.826e-002    0.216    6.742e+003    9.285e+001    
12.987   11.225   4.000       0.710         3.478     1.762    0.987      4.818e-002    0.215    6.906e+003    9.413e+001    
12.987   11.212   4.000       0.709         3.501     1.775    0.987      4.798e-002    0.213    6.643e+003    9.184e+001    
12.987   11.200   4.000       0.709         3.527     1.787    0.987      4.789e-002    0.211    6.436e+003    9.095e+001    
12.987   11.187   4.000       0.708         3.549     1.800    0.987      4.769e-002    0.210    6.384e+003    9.029e+001    
12.987   11.175   4.000       0.707         3.576     1.812    0.986      4.761e-002    0.208    6.588e+003    9.139e+001    
12.987   11.162   4.000       0.706         3.599     1.825    0.986      4.741e-002    0.206    6.429e+003    9.030e+001    
12.987   11.149   4.000       0.705         3.625     1.838    0.986      4.728e-002    0.205    6.561e+003    9.118e+001    
12.987   11.137   4.000       0.705         3.648     1.850    0.986      4.713e-002    0.203    6.544e+003    9.103e+001    
12.987   11.124   4.000       0.704         3.671     1.863    0.986      4.693e-002    0.201    6.445e+003    9.009e+001    
12.987   11.112   4.000       0.703         3.698     1.875    0.986      4.684e-002    0.200    6.479e+003    8.945e+001    
12.987   11.099   4.000       0.702         3.721     1.888    0.985      4.665e-002    0.198    6.342e+003    8.777e+001    
12.987   11.087   4.000       0.701         3.744     1.900    0.985      4.650e-002    0.197    6.208e+003    8.627e+001    
12.987   11.074   4.000       0.701         3.771     1.913    0.985      4.637e-002    0.195    6.184e+003    8.599e+001    
12.987   11.061   4.000       0.700         3.795     1.926    0.985      4.618e-002    0.194    6.105e+003    8.546e+001    
12.987   11.049   4.000       0.699         3.818     1.938    0.985      4.603e-002    0.192    6.234e+003    8.623e+001    
12.987   11.036   4.000       0.698         3.842     1.951    0.985      4.584e-002    0.191    6.172e+003    8.538e+001    
12.987   11.024   4.000       0.698         3.869     1.963    0.984      4.576e-002    0.189    6.228e+003    8.585e+001    
12.987   11.011   4.000       0.697         3.893     1.976    0.984      4.557e-002    0.188    6.087e+003    8.482e+001    
12.987   10.999   4.000       0.696         3.916     1.988    0.984      4.542e-002    0.187    5.942e+003    8.381e+001    
12.987   10.986   4.000       0.695         3.940     2.001    0.984      4.524e-002    0.185    6.126e+003    8.491e+001    
12.987   10.973   4.000       0.694         3.964     2.014    0.984      4.505e-002    0.184    5.958e+003    8.395e+001    
12.987   10.961   4.000       0.694         3.988     2.026    0.983      4.491e-002    0.182    5.992e+003    8.465e+001    
9.993    9.599    4.000       0.467         1.151     0.394    0.997      3.388e-002    0.632    6.755e+003    5.147e+002    
9.993    9.589    4.000       0.467         1.171     0.404    0.997      3.584e-002    0.616    6.587e+003    4.805e+002    
9.993    9.580    4.000       0.466         1.190     0.413    0.997      3.781e-002    0.602    8.001e+003    4.657e+002    
9.993    9.570    4.000       0.466         1.208     0.423    0.997      3.942e-002    0.587    9.610e+003    4.700e+002    
9.993    9.560    4.000       0.465         1.228     0.433    0.997      4.125e-002    0.573    1.099e+004    4.687e+002    
9.993    9.550    4.000       0.465         1.245     0.443    0.997      4.278e-002    0.559    1.222e+004    4.751e+002    
9.993    9.541    4.000       0.465         1.266     0.452    0.997      4.459e-002    0.548    1.313e+004    4.735e+002    
9.993    9.531    4.000       0.464         1.284     0.462    0.996      4.604e-002    0.535    1.559e+004    4.955e+002    
9.993    9.521    4.000       0.464         1.302     0.472    0.996      4.744e-002    0.523    1.721e+004    5.040e+002    
9.993    9.512    4.000       0.463         1.320     0.481    0.996      4.888e-002    0.513    1.959e+004    5.249e+002    
9.993    9.502    4.000       0.463         1.339     0.491    0.996      5.021e-002    0.502    2.257e+004    5.453e+002    
9.993    9.492    4.000       0.462         1.357     0.501    0.996      5.151e-002    0.492    2.388e+004    5.565e+002    
9.993    9.482    4.000       0.462         1.378     0.511    0.996      5.301e-002    0.481    2.727e+004    5.802e+002    
9.993    9.473    4.000       0.461         1.395     0.520    0.996      5.406e-002    0.473    2.798e+004    5.865e+002    
9.993    9.463    4.000       0.461         1.414     0.530    0.996      5.524e-002    0.463    3.069e+004    6.027e+002    
9.993    9.453    4.000       0.460         1.433     0.540    0.996      5.638e-002    0.454    3.372e+004    6.264e+002    
9.993    9.443    4.000       0.460         1.452     0.550    0.996      5.749e-002    0.445    3.519e+004    6.295e+002    
9.993    9.434    4.000       0.459         1.471     0.559    0.996      5.864e-002    0.438    3.538e+004    6.294e+002    
9.993    9.424    4.000       0.459         1.488     0.569    0.996      5.944e-002    0.430    3.574e+004    6.260e+002    
9.993    9.414    4.000       0.458         1.508     0.579    0.996      6.045e-002    0.422    3.567e+004    6.155e+002    
9.993    9.404    4.000       0.458         1.528     0.589    0.996      6.142e-002    0.414    3.418e+004    6.014e+002    
9.993    9.395    4.000       0.457         1.545     0.598    0.996      6.222e-002    0.408    3.311e+004    5.824e+002    
9.993    9.385    4.000       0.457         1.565     0.608    0.996      6.312e-002    0.400    3.099e+004    5.629e+002    
9.993    9.375    4.000       0.456         1.583     0.618    0.996      6.377e-002    0.394    2.925e+004    5.397e+002    
9.993    9.365    4.000       0.456         1.603     0.628    0.995      6.461e-002    0.387    2.795e+004    5.271e+002    
9.993    9.356    4.000       0.455         1.621     0.637    0.995      6.530e-002    0.381    2.703e+004    5.113e+002    
9.993    9.346    4.000       0.455         1.638     0.647    0.995      6.587e-002    0.375    2.445e+004    4.889e+002    
9.993    9.336    4.000       0.455         1.659     0.657    0.995      6.663e-002    0.369    2.430e+004    4.799e+002    
9.993    9.327    4.000       0.454         1.677     0.666    0.995      6.725e-002    0.363    2.251e+004    4.637e+002    
9.993    9.317    4.000       0.454         1.695     0.676    0.995      6.774e-002    0.358    2.089e+004    4.429e+002    
9.993    9.307    4.000       0.453         1.713     0.686    0.995      6.820e-002    0.352    1.951e+004    4.309e+002    
9.993    9.297    4.000       0.453         1.734     0.696    0.995      6.886e-002    0.347    1.839e+004    4.152e+002    
9.993    9.288    4.000       0.452         1.753     0.705    0.995      6.938e-002    0.342    1.786e+004    4.106e+002    
9.993    9.278    4.000       0.452         1.772     0.715    0.995      6.978e-002    0.337    1.742e+004    4.014e+002    
9.993    9.268    4.000       0.451         1.790     0.725    0.995      7.016e-002    0.332    1.777e+004    4.060e+002    
9.993    9.258    4.000       0.451         1.809     0.735    0.995      7.052e-002    0.327    1.689e+004    3.930e+002    
9.993    9.249    4.000       0.450         1.828     0.744    0.995      7.097e-002    0.323    1.610e+004    3.866e+002    
9.993    9.239    4.000       0.450         1.847     0.754    0.995      7.129e-002    0.318    1.676e+004    3.894e+002    
9.993    9.229    4.000       0.449         1.863     0.764    0.994      7.139e-002    0.313    1.613e+004    3.855e+002    
9.993    9.219    4.000       0.449         1.882     0.774    0.994      7.168e-002    0.309    1.618e+004    3.826e+002    
9.993    9.210    4.000       0.448         1.902     0.783    0.994      7.205e-002    0.305    1.615e+004    3.841e+002    
9.993    9.200    4.000       0.448         1.921     0.793    0.994      7.231e-002    0.301    1.570e+004    3.798e+002    
9.993    9.190    4.000       0.447         1.940     0.803    0.994      7.254e-002    0.297    1.503e+004    3.692e+002    
9.993    9.180    4.000       0.447         1.957     0.813    0.994      7.257e-002    0.293    1.584e+004    3.802e+002    
9.993    9.171    4.000       0.446         1.977     0.822    0.994      7.289e-002    0.289    1.541e+004    3.723e+002    
9.993    9.161    4.000       0.446         1.997     0.832    0.994      7.308e-002    0.286    1.532e+004    3.735e+002    
9.993    9.151    4.000       0.446         2.014     0.842    0.994      7.308e-002    0.282    1.640e+004    3.826e+002    
9.993    9.141    4.000       0.445         2.033     0.852    0.994      7.325e-002    0.278    1.588e+004    3.805e+002    
9.993    9.132    4.000       0.445         2.051     0.861    0.994      7.333e-002    0.275    1.660e+004    3.850e+002    
9.993    9.122    4.000       0.444         2.071     0.871    0.993      7.347e-002    0.272    1.662e+004    3.891e+002    
9.993    9.112    4.000       0.444         2.091     0.881    0.993      7.360e-002    0.268    1.701e+004    3.901e+002    
9.993    9.103    4.000       0.443         2.108     0.890    0.993      7.366e-002    0.265    1.805e+004    4.031e+002    
9.993    9.093    4.000       0.443         2.126     0.900    0.993      7.359e-002    0.262    1.824e+004    4.096e+002    
9.993    9.083    4.000       0.442         2.146     0.910    0.993      7.369e-002    0.259    1.741e+004    4.105e+002    
9.993    9.073    4.000       0.442         2.164     0.920    0.993      7.361e-002    0.256    1.822e+004    4.184e+002    
9.993    9.064    4.000       0.441         2.184     0.929    0.993      7.380e-002    0.253    1.852e+004    4.244e+002    
9.993    9.054    4.000       0.441         2.202     0.939    0.993      7.370e-002    0.250    1.952e+004    4.350e+002    
9.993    9.044    4.000       0.440         2.220     0.949    0.993      7.360e-002    0.247    1.898e+004    4.254e+002    
9.993    9.034    4.000       0.440         2.238     0.959    0.993      7.349e-002    0.244    1.927e+004    4.307e+002    
9.993    9.025    4.000       0.439         2.259     0.968    0.992      7.364e-002    0.242    1.974e+004    4.309e+002    
9.993    9.015    4.000       0.439         2.277     0.978    0.992      7.352e-002    0.239    1.920e+004    4.283e+002    
9.993    9.005    4.000       0.438         2.295     0.988    0.992      7.339e-002    0.236    1.957e+004    4.265e+002    
9.993    8.995    4.000       0.438         2.313     0.998    0.992      7.326e-002    0.234    1.911e+004    4.242e+002    
9.993    8.986    4.000       0.437         2.332     1.007    0.992      7.323e-002    0.232    1.909e+004    4.195e+002    
9.993    8.976    4.000       0.437         2.353     1.017    0.992      7.324e-002    0.229    1.904e+004    4.206e+002    
9.993    8.966    4.000       0.437         2.372     1.027    0.992      7.309e-002    0.226    1.889e+004    4.150e+002    
9.993    8.956    4.000       0.436         2.390     1.037    0.992      7.294e-002    0.224    1.779e+004    4.047e+002    
9.993    8.947    4.000       0.436         2.409     1.046    0.992      7.289e-002    0.222    1.788e+004    4.047e+002    
9.993    8.937    4.000       0.435         2.427     1.056    0.991      7.273e-002    0.220    1.725e+004    3.936e+002    
9.993    8.927    4.000       0.435         2.446     1.066    0.991      7.257e-002    0.217    1.743e+004    3.972e+002    
9.993    8.918    4.000       0.434         2.465     1.075    0.991      7.250e-002    0.215    1.684e+004    3.861e+002    
9.993    8.908    4.000       0.434         2.484     1.085    0.991      7.233e-002    0.213    1.610e+004    3.816e+002    
9.993    8.898    4.000       0.433         2.503     1.095    0.991      7.216e-002    0.211    1.607e+004    3.767e+002    
9.993    8.888    4.000       0.433         2.522     1.105    0.991      7.199e-002    0.209    1.567e+004    3.747e+002    
9.993    8.879    4.000       0.432         2.541     1.114    0.991      7.191e-002    0.207    1.578e+004    3.725e+002    
9.993    8.869    4.000       0.432         2.557     1.124    0.991      7.159e-002    0.205    1.526e+004    3.690e+002    
9.993    8.859    4.000       0.431         2.576     1.134    0.990      7.141e-002    0.203    1.566e+004    3.706e+002    
9.993    8.849    4.000       0.431         2.595     1.144    0.990      7.123e-002    0.201    1.617e+004    3.779e+002    
9.993    8.840    4.000       0.430         2.615     1.153    0.990      7.114e-002    0.199    1.553e+004    3.687e+002    
9.993    8.830    4.000       0.430         2.634     1.163    0.990      7.095e-002    0.197    1.594e+004    3.654e+002    
9.993    8.820    4.000       0.429         2.650     1.173    0.990      7.063e-002    0.195    1.560e+004    3.585e+002    
9.993    8.810    4.000       0.429         2.670     1.183    0.990      7.044e-002    0.193    1.618e+004    3.615e+002    
9.993    8.801    4.000       0.428         2.690     1.192    0.990      7.034e-002    0.192    1.598e+004    3.620e+002    
9.993    8.791    4.000       0.428         2.709     1.202    0.989      7.015e-002    0.190    1.567e+004    3.558e+002    
9.993    8.781    4.000       0.428         2.726     1.212    0.989      6.983e-002    0.188    1.576e+004    3.600e+002    
9.993    8.771    4.000       0.427         2.746     1.222    0.989      6.964e-002    0.186    1.614e+004    3.609e+002    
9.993    8.762    4.000       0.427         2.766     1.231    0.989      6.953e-002    0.185    1.603e+004    3.619e+002    
9.993    8.752    4.000       0.426         2.782     1.241    0.989      6.921e-002    0.183    1.618e+004    3.631e+002    
9.993    8.742    4.000       0.426         2.802     1.251    0.989      6.902e-002    0.181    1.592e+004    3.575e+002    
9.993    8.733    4.000       0.425         2.819     1.260    0.989      6.879e-002    0.180    1.602e+004    3.605e+002    
9.993    8.723    4.000       0.425         2.839     1.270    0.988      6.859e-002    0.178    1.580e+004    3.550e+002    
9.993    8.713    4.000       0.424         2.859     1.280    0.988      6.839e-002    0.177    1.473e+004    3.460e+002    
9.993    8.703    4.000       0.424         2.876     1.290    0.988      6.808e-002    0.175    1.536e+004    3.490e+002    
9.993    8.694    4.000       0.423         2.897     1.299    0.988      6.797e-002    0.174    1.505e+004    3.473e+002    
9.993    8.684    4.000       0.423         2.914     1.309    0.988      6.766e-002    0.172    1.463e+004    3.398e+002    
9.993    8.674    4.000       0.422         2.934     1.319    0.988      6.746e-002    0.171    1.448e+004    3.399e+002    
9.993    8.664    4.000       0.422         2.952     1.329    0.988      6.714e-002    0.169    1.420e+004    3.363e+002    
9.993    8.655    4.000       0.421         2.972     1.338    0.987      6.703e-002    0.168    1.374e+004    3.278e+002    
9.993    8.645    4.000       0.421         2.989     1.348    0.987      6.672e-002    0.166    1.412e+004    3.335e+002    
9.993    8.635    4.000       0.420         3.007     1.358    0.987      6.642e-002    0.165    1.389e+004    3.278e+002    
9.993    8.625    4.000       0.420         3.028     1.368    0.987      6.622e-002    0.164    1.356e+004    3.263e+002    
9.993    8.616    4.000       0.419         3.045     1.377    0.987      6.600e-002    0.162    1.331e+004    3.202e+002    
9.993    8.606    4.000       0.419         3.066     1.387    0.987      6.580e-002    0.161    1.349e+004    3.241e+002    
9.993    8.596    4.000       0.418         3.084     1.397    0.986      6.550e-002    0.160    1.284e+004    3.164e+002    
9.993    8.586    4.000       0.418         3.101     1.407    0.986      6.520e-002    0.158    1.338e+004    3.193e+002    
9.993    8.577    4.000       0.418         3.122     1.416    0.986      6.508e-002    0.157    1.291e+004    3.156e+002    
9.993    8.567    4.000       0.417         3.140     1.426    0.986      6.478e-002    0.156    1.273e+004    3.111e+002    
9.993    8.557    4.000       0.417         3.158     1.436    0.986      6.449e-002    0.155    1.272e+004    3.123e+002    
9.993    8.548    4.000       0.416         3.176     1.445    0.986      6.427e-002    0.153    1.273e+004    3.099e+002    
9.993    8.538    4.000       0.416         3.197     1.455    0.985      6.408e-002    0.152    1.213e+004    3.049e+002    
9.993    8.528    4.000       0.415         3.215     1.465    0.985      6.379e-002    0.151    1.197e+004    3.006e+002    
9.993    8.518    4.000       0.415         3.233     1.475    0.985      6.350e-002    0.150    1.194e+004    3.017e+002    
9.993    8.509    4.000       0.414         3.251     1.484    0.985      6.328e-002    0.149    1.154e+004    2.966e+002    
9.993    8.499    4.000       0.414         3.269     1.494    0.985      6.300e-002    0.148    1.211e+004    3.007e+002    
9.993    8.489    4.000       0.413         3.291     1.504    0.984      6.281e-002    0.146    1.188e+004    2.999e+002    
9.993    8.479    4.000       0.413         3.309     1.514    0.984      6.253e-002    0.145    1.209e+004    2.996e+002    
9.993    8.470    4.000       0.412         3.327     1.523    0.984      6.232e-002    0.144    1.200e+004    3.004e+002    
9.993    8.460    4.000       0.412         3.345     1.533    0.984      6.204e-002    0.143    1.150e+004    2.945e+002    
9.993    8.450    4.000       0.411         3.364     1.543    0.984      6.176e-002    0.142    1.105e+004    2.874e+002    
9.993    8.440    4.000       0.411         3.382     1.553    0.984      6.149e-002    0.141    1.156e+004    2.949e+002    
9.993    8.431    4.000       0.410         3.400     1.562    0.983      6.128e-002    0.140    1.148e+004    2.915e+002    
9.993    8.421    4.000       0.410         3.419     1.572    0.983      6.101e-002    0.139    1.181e+004    2.970e+002    
9.993    8.411    4.000       0.409         3.441     1.582    0.983      6.083e-002    0.138    1.102e+004    2.855e+002    
9.993    8.401    4.000       0.409         3.460     1.592    0.983      6.056e-002    0.137    1.146e+004    2.925e+002    
9.993    8.392    4.000       0.409         3.478     1.601    0.983      6.036e-002    0.136    1.097e+004    2.866e+002    
9.993    8.382    4.000       0.408         3.497     1.611    0.982      6.010e-002    0.135    1.132e+004    2.877e+002    
9.993    8.372    4.000       0.408         3.516     1.621    0.982      5.984e-002    0.134    1.127e+004    2.890e+002    
9.993    8.363    4.000       0.407         3.534     1.630    0.982      5.964e-002    0.133    1.106e+004    2.839e+002    
9.993    8.353    4.000       0.407         3.553     1.640    0.982      5.938e-002    0.132    1.076e+004    2.829e+002    
9.993    8.343    4.000       0.406         3.572     1.650    0.982      5.912e-002    0.131    1.089e+004    2.824e+002    
9.993    8.333    4.000       0.406         3.591     1.660    0.981      5.887e-002    0.130    1.103e+004    2.862e+002    
9.993    8.324    4.000       0.405         3.606     1.669    0.981      5.860e-002    0.129    1.011e+004    2.744e+002    
9.993    8.314    4.000       0.405         3.625     1.679    0.981      5.834e-002    0.128    1.058e+004    2.781e+002    
9.993    8.304    4.000       0.404         3.644     1.689    0.981      5.809e-002    0.128    1.087e+004    2.832e+002    
9.993    8.294    4.000       0.404         3.663     1.699    0.981      5.784e-002    0.127    1.102e+004    2.824e+002    
9.993    8.285    4.000       0.403         3.683     1.708    0.980      5.766e-002    0.126    1.044e+004    2.773e+002    
9.993    8.275    4.000       0.403         3.702     1.718    0.980      5.742e-002    0.125    1.017e+004    2.743e+002    
9.993    8.265    4.000       0.402         3.721     1.728    0.980      5.717e-002    0.124    1.039e+004    2.745e+002    
9.993    8.255    4.000       0.402         3.740     1.738    0.980      5.693e-002    0.123    1.015e+004    2.731e+002    
9.993    8.246    4.000       0.401         3.760     1.747    0.979      5.675e-002    0.122    1.009e+004    2.705e+002    
9.993    8.236    4.000       0.401         3.775     1.757    0.979      5.644e-002    0.122    1.011e+004    2.720e+002    
9.993    8.226    4.000       0.400         3.795     1.767    0.979      5.620e-002    0.121    1.052e+004    2.772e+002    
9.993    8.216    4.000       0.400         3.814     1.777    0.979      5.597e-002    0.120    9.989e+003    2.688e+002    
9.993    8.207    4.000       0.400         3.834     1.786    0.979      5.579e-002    0.119    1.017e+004    2.725e+002    
9.993    8.197    4.000       0.399         3.853     1.796    0.978      5.556e-002    0.118    9.658e+003    2.638e+002    
9.993    8.187    4.000       0.399         3.869     1.806    0.978      5.526e-002    0.118    9.716e+003    2.662e+002    
9.993    8.178    4.000       0.398         3.889     1.815    0.978      5.509e-002    0.117    9.576e+003    2.646e+002    
9.993    8.168    4.000       0.398         3.909     1.825    0.978      5.486e-002    0.116    9.502e+003    2.619e+002    
9.993    8.158    4.000       0.397         3.928     1.835    0.977      5.464e-002    0.115    9.421e+003    2.618e+002    
9.993    8.148    4.000       0.397         3.944     1.845    0.977      5.435e-002    0.115    9.731e+003    2.633e+002    
9.993    8.139    4.000       0.396         3.964     1.854    0.977      5.418e-002    0.114    9.399e+003    2.607e+002    
9.993    8.129    4.000       0.396         3.984     1.864    0.977      5.396e-002    0.113    9.993e+003    2.707e+002    
9.993    8.119    4.000       0.395         4.000     1.874    0.976      5.367e-002    0.112    9.269e+003    2.662e+002    
6.999    6.726    4.000       0.229         1.162     0.273    0.997      7.220e-002    0.448    1.239e+004    7.301e+002    
6.999    6.719    4.000       0.229         1.175     0.280    0.997      7.456e-002    0.436    1.452e+004    6.973e+002    
6.999    6.712    4.000       0.229         1.188     0.287    0.997      7.685e-002    0.425    1.741e+004    6.823e+002    
6.999    6.706    4.000       0.229         1.201     0.293    0.997      7.923e-002    0.416    1.964e+004    6.758e+002    
6.999    6.699    4.000       0.228         1.214     0.300    0.997      8.139e-002    0.406    2.327e+004    6.807e+002    
6.999    6.692    4.000       0.228         1.228     0.307    0.997      8.348e-002    0.396    2.672e+004    6.875e+002    
6.999    6.685    4.000       0.228         1.241     0.314    0.997      8.551e-002    0.387    2.804e+004    6.833e+002    
6.999    6.678    4.000       0.228         1.254     0.321    0.996      8.748e-002    0.378    3.230e+004    7.002e+002    
6.999    6.671    4.000       0.227         1.268     0.328    0.996      8.937e-002    0.370    3.565e+004    7.072e+002    
6.999    6.664    4.000       0.227         1.281     0.335    0.996      9.121e-002    0.361    3.971e+004    7.208e+002    
6.999    6.657    4.000       0.227         1.295     0.342    0.996      9.298e-002    0.354    4.383e+004    7.350e+002    
6.999    6.651    4.000       0.227         1.306     0.348    0.996      9.438e-002    0.347    4.861e+004    7.555e+002    
6.999    6.644    4.000       0.227         1.320     0.355    0.996      9.603e-002    0.340    5.305e+004    7.719e+002    
6.999    6.637    4.000       0.226         1.334     0.362    0.996      9.763e-002    0.333    5.827e+004    7.943e+002    
6.999    6.630    4.000       0.226         1.346     0.369    0.996      9.867e-002    0.326    6.292e+004    8.136e+002    
6.999    6.623    4.000       0.226         1.360     0.376    0.996      1.002e-001    0.320    6.821e+004    8.358e+002    
6.999    6.616    4.000       0.226         1.374     0.383    0.996      1.016e-001    0.314    7.289e+004    8.480e+002    
6.999    6.609    4.000       0.225         1.385     0.390    0.996      1.025e-001    0.308    8.088e+004    8.773e+002    
6.999    6.602    4.000       0.225         1.399     0.397    0.996      1.038e-001    0.302    8.559e+004    8.933e+002    
6.999    6.596    4.000       0.225         1.411     0.403    0.996      1.048e-001    0.297    8.907e+004    9.023e+002    
6.999    6.589    4.000       0.225         1.426     0.410    0.996      1.060e-001    0.292    9.402e+004    9.185e+002    
6.999    6.582    4.000       0.224         1.438     0.417    0.996      1.067e-001    0.287    9.685e+004    9.245e+002    
6.999    6.575    4.000       0.224         1.452     0.424    0.996      1.079e-001    0.282    1.006e+005    9.384e+002    
6.999    6.568    4.000       0.224         1.464     0.431    0.996      1.085e-001    0.277    1.013e+005    9.310e+002    
6.999    6.561    4.000       0.224         1.479     0.438    0.995      1.095e-001    0.272    1.016e+005    9.264e+002    
6.999    6.554    4.000       0.223         1.491     0.445    0.995      1.101e-001    0.268    1.024e+005    9.207e+002    
6.999    6.548    4.000       0.223         1.503     0.451    0.995      1.108e-001    0.264    9.995e+004    9.047e+002    
6.999    6.541    4.000       0.223         1.518     0.458    0.995      1.117e-001    0.260    9.893e+004    8.933e+002    
6.999    6.534    4.000       0.223         1.530     0.465    0.995      1.122e-001    0.255    9.653e+004    8.775e+002    
6.999    6.527    4.000       0.223         1.543     0.472    0.995      1.126e-001    0.251    9.121e+004    8.485e+002    
6.999    6.520    4.000       0.222         1.558     0.479    0.995      1.134e-001    0.247    8.681e+004    8.284e+002    
6.999    6.513    4.000       0.222         1.570     0.486    0.995      1.137e-001    0.244    8.224e+004    7.982e+002    
6.999    6.506    4.000       0.222         1.583     0.493    0.995      1.140e-001    0.240    8.035e+004    7.786e+002    
6.999    6.499    4.000       0.222         1.595     0.500    0.995      1.143e-001    0.236    7.481e+004    7.497e+002    
6.999    6.493    4.000       0.221         1.610     0.506    0.995      1.152e-001    0.233    7.201e+004    7.372e+002    
6.999    6.486    4.000       0.221         1.623     0.513    0.995      1.154e-001    0.230    6.743e+004    7.153e+002    
6.999    6.479    4.000       0.221         1.636     0.520    0.995      1.156e-001    0.226    6.519e+004    7.057e+002    
6.999    6.472    4.000       0.221         1.649     0.527    0.995      1.158e-001    0.223    6.193e+004    6.935e+002    
6.999    6.465    4.000       0.220         1.662     0.534    0.994      1.159e-001    0.220    5.806e+004    6.772e+002    
6.999    6.458    4.000       0.220         1.674     0.541    0.994      1.161e-001    0.217    5.513e+004    6.668e+002    
6.999    6.451    4.000       0.220         1.687     0.548    0.994      1.162e-001    0.214    5.298e+004    6.538e+002    
6.999    6.444    4.000       0.220         1.700     0.555    0.994      1.163e-001    0.211    4.949e+004    6.381e+002    
6.999    6.438    4.000       0.220         1.713     0.561    0.994      1.166e-001    0.209    4.824e+004    6.339e+002    
6.999    6.431    4.000       0.219         1.727     0.568    0.994      1.166e-001    0.206    4.718e+004    6.308e+002    
6.999    6.424    4.000       0.219         1.740     0.575    0.994      1.166e-001    0.203    4.496e+004    6.216e+002    
6.999    6.417    4.000       0.219         1.753     0.582    0.994      1.167e-001    0.200    4.424e+004    6.209e+002    
6.999    6.410    4.000       0.219         1.766     0.589    0.994      1.166e-001    0.198    4.219e+004    6.133e+002    
6.999    6.403    4.000       0.218         1.780     0.596    0.994      1.166e-001    0.195    4.036e+004    6.082e+002    
6.999    6.396    4.000       0.218         1.793     0.603    0.994      1.166e-001    0.193    4.031e+004    6.126e+002    
6.999    6.389    4.000       0.218         1.806     0.610    0.993      1.165e-001    0.190    3.854e+004    6.063e+002    
6.999    6.383    4.000       0.218         1.820     0.616    0.993      1.167e-001    0.188    3.711e+004    6.023e+002    
6.999    6.376    4.000       0.217         1.833     0.623    0.993      1.166e-001    0.186    3.739e+004    6.090e+002    
6.999    6.369    4.000       0.217         1.847     0.630    0.993      1.165e-001    0.184    3.565e+004    6.038e+002    
6.999    6.362    4.000       0.217         1.858     0.637    0.993      1.161e-001    0.181    3.506e+004    6.053e+002    
6.999    6.355    4.000       0.217         1.871     0.644    0.993      1.160e-001    0.179    3.471e+004    6.105e+002    
6.999    6.348    4.000       0.216         1.885     0.651    0.993      1.158e-001    0.177    3.502e+004    6.193e+002    
6.999    6.341    4.000       0.216         1.899     0.658    0.993      1.157e-001    0.175    3.433e+004    6.230e+002    
6.999    6.334    4.000       0.216         1.913     0.665    0.993      1.155e-001    0.173    3.341e+004    6.244e+002    
6.999    6.328    4.000       0.216         1.924     0.671    0.993      1.153e-001    0.171    3.562e+004    6.504e+002    
6.999    6.321    4.000       0.216         1.938     0.678    0.992      1.151e-001    0.169    3.391e+004    6.503e+002    
6.999    6.314    4.000       0.215         1.952     0.685    0.992      1.149e-001    0.167    3.301e+004    6.558e+002    
6.999    6.307    4.000       0.215         1.963     0.692    0.992      1.145e-001    0.166    3.348e+004    6.637e+002    
6.999    6.300    4.000       0.215         1.977     0.699    0.992      1.143e-001    0.164    3.269e+004    6.607e+002    
6.999    6.293    4.000       0.215         1.991     0.706    0.992      1.141e-001    0.162    3.311e+004    6.664e+002    
6.999    6.286    4.000       0.214         2.002     0.713    0.992      1.136e-001    0.160    3.467e+004    6.788e+002    
6.999    6.279    4.000       0.214         2.016     0.720    0.992      1.133e-001    0.158    3.341e+004    6.680e+002    
6.999    6.273    4.000       0.214         2.031     0.726    0.992      1.134e-001    0.157    3.378e+004    6.679e+002    
6.999    6.266    4.000       0.214         2.042     0.733    0.992      1.128e-001    0.155    3.393e+004    6.746e+002    
6.999    6.259    4.000       0.213         2.056     0.740    0.991      1.126e-001    0.154    3.400e+004    6.746e+002    
6.999    6.252    4.000       0.213         2.068     0.747    0.991      1.121e-001    0.152    3.477e+004    6.822e+002    
6.999    6.245    4.000       0.213         2.082     0.754    0.991      1.119e-001    0.150    3.435e+004    6.806e+002    
6.999    6.238    4.000       0.213         2.094     0.761    0.991      1.113e-001    0.149    3.616e+004    6.972e+002    
6.999    6.231    4.000       0.212         2.108     0.768    0.991      1.111e-001    0.147    3.510e+004    6.894e+002    
6.999    6.224    4.000       0.212         2.123     0.775    0.991      1.108e-001    0.146    3.601e+004    6.943e+002    
6.999    6.218    4.000       0.212         2.135     0.781    0.991      1.105e-001    0.145    3.521e+004    6.880e+002    
6.999    6.211    4.000       0.212         2.149     0.788    0.991      1.103e-001    0.143    3.665e+004    6.984e+002    
6.999    6.204    4.000       0.212         2.161     0.795    0.990      1.098e-001    0.142    3.812e+004    7.113e+002    
6.999    6.197    4.000       0.211         2.173     0.802    0.990      1.093e-001    0.140    3.824e+004    7.122e+002    
6.999    6.190    4.000       0.211         2.187     0.809    0.990      1.090e-001    0.139    3.809e+004    7.118e+002    
6.999    6.183    4.000       0.211         2.199     0.816    0.990      1.085e-001    0.138    3.745e+004    7.066e+002    
6.999    6.176    4.000       0.211         2.214     0.823    0.990      1.082e-001    0.136    3.800e+004    7.117e+002    
6.999    6.169    4.000       0.210         2.226     0.830    0.990      1.077e-001    0.135    3.782e+004    7.100e+002    
6.999    6.163    4.000       0.210         2.241     0.836    0.990      1.076e-001    0.134    3.971e+004    7.238e+002    
6.999    6.156    4.000       0.210         2.253     0.843    0.989      1.071e-001    0.133    3.707e+004    7.056e+002    
6.999    6.149    4.000       0.210         2.265     0.850    0.989      1.066e-001    0.131    3.839e+004    7.144e+002    
6.999    6.142    4.000       0.209         2.280     0.857    0.989      1.063e-001    0.130    3.877e+004    7.166e+002    
6.999    6.135    4.000       0.209         2.292     0.864    0.989      1.058e-001    0.129    3.904e+004    7.191e+002    
6.999    6.128    4.000       0.209         2.304     0.871    0.989      1.053e-001    0.128    3.721e+004    7.007e+002    
6.999    6.121    4.000       0.209         2.320     0.878    0.989      1.050e-001    0.127    3.658e+004    6.925e+002    
6.999    6.114    4.000       0.208         2.332     0.885    0.989      1.045e-001    0.126    3.773e+004    7.001e+002    
6.999    6.108    4.000       0.208         2.344     0.891    0.988      1.042e-001    0.125    3.723e+004    6.940e+002    
6.999    6.101    4.000       0.208         2.359     0.898    0.988      1.039e-001    0.123    3.644e+004    6.852e+002    
6.999    6.094    4.000       0.208         2.372     0.905    0.988      1.034e-001    0.122    3.500e+004    6.712e+002    
6.999    6.087    4.000       0.208         2.384     0.912    0.988      1.029e-001    0.121    3.504e+004    6.671e+002    
6.999    6.080    4.000       0.207         2.396     0.919    0.988      1.024e-001    0.120    3.390e+004    6.550e+002    
6.999    6.073    4.000       0.207         2.412     0.926    0.988      1.021e-001    0.119    3.266e+004    6.432e+002    
6.999    6.066    4.000       0.207         2.424     0.933    0.987      1.016e-001    0.118    3.262e+004    6.419e+002    
6.999    6.059    4.000       0.207         2.437     0.940    0.987      1.011e-001    0.117    3.188e+004    6.348e+002    
6.999    6.053    4.000       0.206         2.449     0.946    0.987      1.008e-001    0.116    3.099e+004    6.250e+002    
6.999    6.046    4.000       0.206         2.462     0.953    0.987      1.003e-001    0.115    3.128e+004    6.290e+002    
6.999    6.039    4.000       0.206         2.477     0.960    0.987      1.001e-001    0.114    3.158e+004    6.297e+002    
6.999    6.032    4.000       0.206         2.490     0.967    0.987      9.958e-002    0.113    3.081e+004    6.221e+002    
6.999    6.025    4.000       0.205         2.503     0.974    0.986      9.911e-002    0.112    2.926e+004    6.077e+002    
6.999    6.018    4.000       0.205         2.515     0.981    0.986      9.863e-002    0.111    2.933e+004    6.082e+002    
6.999    6.011    4.000       0.205         2.528     0.988    0.986      9.816e-002    0.111    2.883e+004    6.003e+002    
6.999    6.004    4.000       0.205         2.541     0.995    0.986      9.769e-002    0.110    2.919e+004    6.046e+002    
6.999    5.998    4.000       0.205         2.554     1.001    0.986      9.740e-002    0.109    2.807e+004    5.930e+002    
6.999    5.991    4.000       0.204         2.570     1.008    0.986      9.712e-002    0.108    2.806e+004    5.927e+002    
6.999    5.984    4.000       0.204         2.582     1.015    0.985      9.666e-002    0.107    2.780e+004    5.899e+002    
6.999    5.977    4.000       0.204         2.595     1.022    0.985      9.620e-002    0.106    2.777e+004    5.891e+002    
6.999    5.970    4.000       0.204         2.608     1.029    0.985      9.575e-002    0.105    2.799e+004    5.917e+002    
6.999    5.963    4.000       0.203         2.621     1.036    0.985      9.530e-002    0.105    2.876e+004    5.987e+002    
6.999    5.956    4.000       0.203         2.634     1.043    0.985      9.485e-002    0.104    2.720e+004    5.839e+002    
6.999    5.949    4.000       0.203         2.647     1.050    0.985      9.440e-002    0.103    2.756e+004    5.875e+002    
6.999    5.943    4.000       0.203         2.660     1.056    0.984      9.412e-002    0.102    2.695e+004    5.821e+002    
6.999    5.936    4.000       0.202         2.673     1.063    0.984      9.368e-002    0.101    2.791e+004    5.914e+002    
6.999    5.929    4.000       0.202         2.686     1.070    0.984      9.325e-002    0.101    2.791e+004    5.908e+002    
6.999    5.922    4.000       0.202         2.699     1.077    0.984      9.281e-002    0.100    2.690e+004    5.820e+002    
6.999    5.915    4.000       0.202         2.713     1.084    0.984      9.238e-002    0.099    2.631e+004    5.772e+002    
6.999    5.908    4.000       0.201         2.726     1.091    0.983      9.195e-002    0.098    2.722e+004    5.837e+002    
6.999    5.901    4.000       0.201         2.739     1.098    0.983      9.153e-002    0.098    2.675e+004    5.798e+002    
6.999    5.894    4.000       0.201         2.752     1.105    0.983      9.111e-002    0.097    2.678e+004    5.786e+002    
6.999    5.888    4.000       0.201         2.766     1.111    0.983      9.084e-002    0.096    2.617e+004    5.729e+002    
6.999    5.881    4.000       0.201         2.779     1.118    0.983      9.043e-002    0.096    2.753e+004    5.846e+002    
6.999    5.874    4.000       0.200         2.792     1.125    0.982      9.001e-002    0.095    2.660e+004    5.784e+002    
6.999    5.867    4.000       0.200         2.806     1.132    0.982      8.960e-002    0.094    2.596e+004    5.713e+002    
6.999    5.860    4.000       0.200         2.819     1.139    0.982      8.920e-002    0.093    2.540e+004    5.642e+002    
6.999    5.853    4.000       0.200         2.829     1.146    0.982      8.864e-002    0.093    2.628e+004    5.721e+002    
6.999    5.846    4.000       0.199         2.843     1.153    0.982      8.824e-002    0.092    2.626e+004    5.700e+002    
6.999    5.839    4.000       0.199         2.856     1.160    0.981      8.784e-002    0.091    2.660e+004    5.725e+002    
6.999    5.833    4.000       0.199         2.870     1.166    0.981      8.759e-002    0.091    2.550e+004    5.609e+002    
6.999    5.826    4.000       0.199         2.883     1.173    0.981      8.720e-002    0.090    2.490e+004    5.532e+002    
6.999    5.819    4.000       0.198         2.897     1.180    0.981      8.681e-002    0.090    2.460e+004    5.503e+002    
6.999    5.812    4.000       0.198         2.910     1.187    0.981      8.642e-002    0.089    2.396e+004    5.416e+002    
6.999    5.805    4.000       0.198         2.924     1.194    0.980      8.604e-002    0.088    2.462e+004    5.476e+002    
6.999    5.798    4.000       0.198         2.934     1.201    0.980      8.552e-002    0.088    2.368e+004    5.370e+002    
6.999    5.791    4.000       0.197         2.948     1.208    0.980      8.514e-002    0.087    2.287e+004    5.271e+002    
6.999    5.785    4.000       0.197         2.962     1.214    0.980      8.490e-002    0.087    2.308e+004    5.288e+002    
6.999    5.778    4.000       0.197         2.976     1.221    0.980      8.453e-002    0.086    2.205e+004    5.174e+002    
6.999    5.771    4.000       0.197         2.989     1.228    0.979      8.416e-002    0.085    2.293e+004    5.248e+002    
6.999    5.764    4.000       0.197         3.000     1.235    0.979      8.365e-002    0.085    2.304e+004    5.250e+002    
6.999    5.757    4.000       0.196         3.014     1.242    0.979      8.329e-002    0.084    2.223e+004    5.153e+002    
6.999    5.750    4.000       0.196         3.028     1.249    0.979      8.293e-002    0.084    2.304e+004    5.219e+002    
6.999    5.743    4.000       0.196         3.042     1.256    0.978      8.258e-002    0.083    2.214e+004    5.122e+002    
6.999    5.736    4.000       0.196         3.056     1.263    0.978      8.222e-002    0.083    2.152e+004    5.061e+002    
6.999    5.730    4.000       0.195         3.066     1.269    0.978      8.186e-002    0.082    2.155e+004    5.050e+002    
6.999    5.723    4.000       0.195         3.080     1.276    0.978      8.152e-002    0.081    2.086e+004    4.963e+002    
6.999    5.716    4.000       0.195         3.094     1.283    0.977      8.117e-002    0.081    2.021e+004    4.886e+002    
6.999    5.709    4.000       0.195         3.108     1.290    0.977      8.083e-002    0.080    1.919e+004    4.770e+002    
6.999    5.702    4.000       0.194         3.119     1.297    0.977      8.036e-002    0.080    2.024e+004    4.873e+002    
6.999    5.695    4.000       0.194         3.133     1.304    0.977      8.002e-002    0.079    2.004e+004    4.848e+002    
6.999    5.688    4.000       0.194         3.147     1.311    0.977      7.968e-002    0.079    1.933e+004    4.756e+002    
6.999    5.681    4.000       0.194         3.158     1.318    0.976      7.923e-002    0.078    1.930e+004    4.752e+002    
6.999    5.675    4.000       0.194         3.172     1.324    0.976      7.902e-002    0.078    1.874e+004    4.682e+002    
6.999    5.668    4.000       0.193         3.186     1.331    0.976      7.869e-002    0.077    1.848e+004    4.647e+002    
6.999    5.661    4.000       0.193         3.197     1.338    0.976      7.824e-002    0.077    1.890e+004    4.678e+002    
6.999    5.654    4.000       0.193         3.211     1.345    0.975      7.792e-002    0.076    1.830e+004    4.607e+002    
6.999    5.647    4.000       0.193         3.226     1.352    0.975      7.760e-002    0.076    1.901e+004    4.682e+002    
6.999    5.640    4.000       0.192         3.236     1.359    0.975      7.717e-002    0.075    1.760e+004    4.517e+002    
6.999    5.633    4.000       0.192         3.251     1.366    0.975      7.685e-002    0.075    1.777e+004    4.541e+002    
6.999    5.626    4.000       0.192         3.265     1.373    0.974      7.654e-002    0.074    1.840e+004    4.606e+002    
6.999    5.620    4.000       0.192         3.276     1.379    0.974      7.623e-002    0.074    1.765e+004    4.515e+002    
6.999    5.613    4.000       0.191         3.291     1.386    0.974      7.592e-002    0.074    1.795e+004    4.545e+002    
6.999    5.606    4.000       0.191         3.305     1.393    0.974      7.561e-002    0.073    1.762e+004    4.502e+002    
6.999    5.599    4.000       0.191         3.316     1.400    0.973      7.520e-002    0.073    1.702e+004    4.445e+002    
6.999    5.592    4.000       0.191         3.331     1.407    0.973      7.490e-002    0.072    1.834e+004    4.579e+002    
6.999    5.585    4.000       0.190         3.342     1.414    0.973      7.449e-002    0.072    1.693e+004    4.415e+002    
6.999    5.578    4.000       0.190         3.356     1.421    0.972      7.420e-002    0.071    1.760e+004    4.491e+002    
6.999    5.571    4.000       0.190         3.371     1.428    0.972      7.391e-002    0.071    1.742e+004    4.464e+002    
6.999    5.565    4.000       0.190         3.382     1.434    0.972      7.361e-002    0.071    1.718e+004    4.462e+002    
6.999    5.558    4.000       0.190         3.397     1.441    0.972      7.332e-002    0.070    1.688e+004    4.440e+002    
6.999    5.551    4.000       0.189         3.408     1.448    0.971      7.293e-002    0.070    1.771e+004    4.509e+002    
6.999    5.544    4.000       0.189         3.423     1.455    0.971      7.265e-002    0.069    1.652e+004    4.376e+002    
6.999    5.537    4.000       0.189         3.434     1.462    0.971      7.226e-002    0.069    1.698e+004    4.424e+002    
6.999    5.530    4.000       0.189         3.448     1.469    0.971      7.198e-002    0.068    1.666e+004    4.379e+002    
6.999    5.523    4.000       0.188         3.460     1.476    0.970      7.160e-002    0.068    1.622e+004    4.354e+002    
6.999    5.516    4.000       0.188         3.474     1.483    0.970      7.133e-002    0.068    1.636e+004    4.434e+002    
6.999    5.510    4.000       0.188         3.486     1.489    0.970      7.105e-002    0.067    1.628e+004    4.511e+002    
6.999    5.503    4.000       0.188         3.501     1.496    0.969      7.078e-002    0.067    1.615e+004    4.575e+002    
6.999    5.496    4.000       0.187         3.512     1.503    0.969      7.042e-002    0.066    1.613e+004    4.655e+002    
6.999    5.489    4.000       0.187         3.527     1.510    0.969      7.015e-002    0.066    1.637e+004    4.786e+002    
6.999    5.482    4.000       0.187         3.538     1.517    0.969      6.979e-002    0.066    1.601e+004    4.837e+002    
6.999    5.475    4.000       0.187         3.553     1.524    0.968      6.953e-002    0.065    1.573e+004    4.900e+002    
6.999    5.468    4.000       0.186         3.565     1.531    0.968      6.917e-002    0.065    1.628e+004    5.082e+002    
6.999    5.461    4.000       0.186         3.580     1.538    0.968      6.892e-002    0.065    1.509e+004    5.044e+002    
6.999    5.455    4.000       0.186         3.591     1.544    0.967      6.866e-002    0.064    1.543e+004    5.255e+002    
6.999    5.448    4.000       0.186         3.606     1.551    0.967      6.840e-002    0.064    1.584e+004    5.443e+002    
6.999    5.441    4.000       0.186         3.618     1.558    0.967      6.806e-002    0.063    1.563e+004    5.549e+002    
6.999    5.434    4.000       0.185         3.633     1.565    0.966      6.781e-002    0.063    1.459e+004    5.566e+002    
6.999    5.427    4.000       0.185         3.644     1.572    0.966      6.747e-002    0.063    1.373e+004    5.608e+002    
6.999    5.420    4.000       0.185         3.660     1.579    0.966      6.722e-002    0.062    1.471e+004    5.950e+002    
6.999    5.413    4.000       0.185         3.671     1.586    0.966      6.689e-002    0.062    1.565e+004    6.345e+002    
6.999    5.406    4.000       0.184         3.686     1.593    0.965      6.665e-002    0.062    1.601e+004    6.556e+002    
6.999    5.399    4.000       0.184         3.698     1.600    0.965      6.632e-002    0.061    1.542e+004    6.574e+002    
6.999    5.393    4.000       0.184         3.709     1.606    0.965      6.608e-002    0.061    1.502e+004    6.836e+002    
6.999    5.386    4.000       0.184         3.725     1.613    0.964      6.584e-002    0.061    1.525e+004    7.253e+002    
6.999    5.379    4.000       0.183         3.736     1.620    0.964      6.552e-002    0.060    1.673e+004    8.075e+002    
6.999    5.372    4.000       0.183         3.752     1.627    0.964      6.529e-002    0.060    1.540e+004    8.277e+002    
6.999    5.365    4.000       0.183         3.764     1.634    0.963      6.497e-002    0.060    1.459e+004    8.547e+002    
6.999    5.358    4.000       0.183         3.775     1.641    0.963      6.466e-002    0.059    1.506e+004    8.957e+002    
6.999    5.351    4.000       0.182         3.791     1.648    0.963      6.443e-002    0.059    1.557e+004    9.059e+002    
6.999    5.344    4.000       0.182         3.803     1.655    0.962      6.412e-002    0.059    1.448e+004    8.726e+002    
6.999    5.338    4.000       0.182         3.814     1.661    0.962      6.389e-002    0.058    1.598e+004    9.142e+002    
6.999    5.331    4.000       0.182         3.830     1.668    0.962      6.367e-002    0.058    1.381e+004    8.590e+002    
6.999    5.324    4.000       0.182         3.842     1.675    0.961      6.337e-002    0.058    1.615e+004    9.094e+002    
6.999    5.317    4.000       0.181         3.857     1.682    0.961      6.315e-002    0.057    1.534e+004    8.950e+002    
6.999    5.310    4.000       0.181         3.869     1.689    0.961      6.285e-002    0.057    1.239e+004    8.201e+002    
6.999    5.303    4.000       0.181         3.881     1.696    0.960      6.256e-002    0.057    1.447e+004    8.662e+002    
6.999    5.296    4.000       0.181         3.897     1.703    0.960      6.235e-002    0.057    1.400e+004    8.562e+002    
6.999    5.289    4.000       0.180         3.909     1.710    0.960      6.205e-002    0.056    1.423e+004    8.593e+002    
6.999    5.283    4.000       0.180         3.920     1.716    0.959      6.184e-002    0.056    1.446e+004    8.725e+002    
6.999    5.276    4.000       0.180         3.936     1.723    0.959      6.163e-002    0.056    1.383e+004    8.530e+002    
6.999    5.269    4.000       0.180         3.948     1.730    0.959      6.135e-002    0.055    1.464e+004    8.683e+002    
6.999    5.262    4.000       0.179         3.960     1.737    0.958      6.106e-002    0.055    1.369e+004    8.514e+002    
6.999    5.255    4.000       0.179         3.972     1.744    0.958      6.078e-002    0.055    1.315e+004    8.349e+002    
6.999    5.248    4.000       0.179         3.988     1.751    0.958      6.058e-002    0.054    1.392e+004    8.280e+002    
6.999    5.241    4.000       0.179         4.000     1.758    0.957      6.031e-002    0.054    1.337e+004    7.712e+002    
4.499    4.300    4.000       0.094         1.160     0.199    0.997      1.618e-001    0.252    2.396e+004    5.376e+003    
4.499    4.293    4.000       0.094         1.171     0.206    0.996      1.645e-001    0.243    2.398e+004    6.068e+003    
4.499    4.289    4.000       0.094         1.179     0.210    0.996      1.673e-001    0.239    2.493e+004    5.469e+003    
4.499    4.284    4.000       0.094         1.188     0.215    0.996      1.695e-001    0.233    2.984e+004    4.912e+003    
4.499    4.280    4.000       0.094         1.197     0.219    0.996      1.722e-001    0.228    3.393e+004    4.668e+003    
4.499    4.276    4.000       0.094         1.206     0.223    0.996      1.747e-001    0.224    4.052e+004    4.317e+003    
4.499    4.271    4.000       0.094         1.214     0.228    0.996      1.766e-001    0.219    4.525e+004    4.196e+003    
4.499    4.267    4.000       0.094         1.223     0.232    0.996      1.790e-001    0.215    5.235e+004    3.962e+003    
4.499    4.262    4.000       0.093         1.230     0.237    0.996      1.795e-001    0.210    5.466e+004    3.858e+003    
4.499    4.258    4.000       0.093         1.239     0.241    0.996      1.817e-001    0.206    6.650e+004    3.743e+003    
4.499    4.253    4.000       0.093         1.248     0.246    0.996      1.832e-001    0.202    6.469e+004    3.645e+003    
4.499    4.249    4.000       0.093         1.257     0.250    0.996      1.852e-001    0.199    7.020e+004    3.464e+003    
4.499    4.244    4.000       0.093         1.263     0.255    0.996      1.854e-001    0.194    8.041e+004    3.522e+003    
4.499    4.240    4.000       0.093         1.272     0.259    0.996      1.873e-001    0.191    7.738e+004    3.304e+003    
4.499    4.236    4.000       0.093         1.281     0.263    0.996      1.891e-001    0.188    9.074e+004    3.364e+003    
4.499    4.231    4.000       0.093         1.290     0.268    0.996      1.902e-001    0.184    9.479e+004    3.226e+003    
4.499    4.227    4.000       0.093         1.297     0.272    0.996      1.908e-001    0.182    1.009e+005    3.255e+003    
4.499    4.222    4.000       0.093         1.306     0.277    0.996      1.917e-001    0.178    1.084e+005    3.139e+003    
4.499    4.218    4.000       0.092         1.316     0.281    0.995      1.932e-001    0.175    1.116e+005    3.158e+003    
4.499    4.213    4.000       0.092         1.322     0.286    0.995      1.930e-001    0.172    1.235e+005    3.110e+003    
4.499    4.209    4.000       0.092         1.332     0.290    0.995      1.943e-001    0.170    1.245e+005    3.042e+003    
4.499    4.204    4.000       0.092         1.341     0.295    0.995      1.950e-001    0.166    1.401e+005    3.057e+003    
4.499    4.200    4.000       0.092         1.348     0.299    0.995      1.953e-001    0.164    1.441e+005    3.009e+003    
4.499    4.196    4.000       0.092         1.357     0.303    0.995      1.965e-001    0.162    1.476e+005    2.989e+003    
4.499    4.191    4.000       0.092         1.367     0.308    0.995      1.969e-001    0.159    1.602e+005    2.992e+003    
4.499    4.187    4.000       0.092         1.374     0.312    0.995      1.971e-001    0.157    1.626e+005    2.967e+003    
4.499    4.182    4.000       0.092         1.383     0.317    0.995      1.974e-001    0.154    1.708e+005    2.935e+003    
4.499    4.178    4.000       0.092         1.390     0.321    0.995      1.975e-001    0.152    1.883e+005    3.007e+003    
4.499    4.173    4.000       0.091         1.399     0.326    0.995      1.978e-001    0.150    1.933e+005    2.957e+003    
4.499    4.169    4.000       0.091         1.409     0.330    0.995      1.986e-001    0.148    1.955e+005    2.946e+003    
4.499    4.164    4.000       0.091         1.416     0.335    0.995      1.979e-001    0.145    2.023e+005    2.933e+003    
4.499    4.160    4.000       0.091         1.426     0.339    0.995      1.987e-001    0.143    2.096e+005    2.997e+003    
4.499    4.155    4.000       0.091         1.433     0.344    0.994      1.979e-001    0.141    2.088e+005    2.948e+003    
4.499    4.151    4.000       0.091         1.442     0.348    0.994      1.987e-001    0.139    2.141e+005    3.006e+003    
4.499    4.147    4.000       0.091         1.450     0.352    0.994      1.985e-001    0.138    2.154e+005    3.003e+003    
4.499    4.142    4.000       0.091         1.459     0.357    0.994      1.985e-001    0.136    2.183e+005    2.957e+003    
4.499    4.138    4.000       0.091         1.467     0.361    0.994      1.982e-001    0.134    2.228e+005    3.007e+003    
4.499    4.133    4.000       0.091         1.476     0.366    0.994      1.981e-001    0.132    2.194e+005    2.934e+003    
4.499    4.129    4.000       0.091         1.484     0.370    0.994      1.979e-001    0.130    2.185e+005    2.941e+003    
4.499    4.124    4.000       0.090         1.493     0.375    0.994      1.977e-001    0.128    2.132e+005    2.847e+003    
4.499    4.120    4.000       0.090         1.501     0.379    0.994      1.974e-001    0.127    2.175e+005    2.894e+003    
4.499    4.115    4.000       0.090         1.510     0.384    0.994      1.972e-001    0.125    2.058e+005    2.779e+003    
4.499    4.111    4.000       0.090         1.518     0.388    0.994      1.968e-001    0.124    2.055e+005    2.804e+003    
4.499    4.107    4.000       0.090         1.525     0.392    0.993      1.965e-001    0.122    1.954e+005    2.687e+003    
4.499    4.102    4.000       0.090         1.535     0.397    0.993      1.962e-001    0.121    1.926e+005    2.696e+003    
4.499    4.098    4.000       0.090         1.543     0.401    0.993      1.958e-001    0.119    1.854e+005    2.612e+003    
4.499    4.093    4.000       0.090         1.553     0.406    0.993      1.954e-001    0.118    1.774e+005    2.580e+003    
4.499    4.089    4.000       0.090         1.560     0.410    0.993      1.950e-001    0.116    1.676e+005    2.503e+003    
4.499    4.084    4.000       0.090         1.568     0.415    0.993      1.939e-001    0.115    1.664e+005    2.475e+003    
4.499    4.080    4.000       0.089         1.578     0.419    0.993      1.941e-001    0.114    1.590e+005    2.481e+003    
4.499    4.075    4.000       0.089         1.585     0.424    0.993      1.930e-001    0.112    1.470e+005    2.387e+003    
4.499    4.071    4.000       0.089         1.593     0.428    0.993      1.926e-001    0.111    1.452e+005    2.422e+003    
4.499    4.067    4.000       0.089         1.603     0.432    0.993      1.928e-001    0.110    1.436e+005    2.399e+003    
4.499    4.062    4.000       0.089         1.610     0.437    0.992      1.916e-001    0.109    1.358e+005    2.381e+003    
4.499    4.058    4.000       0.089         1.618     0.441    0.992      1.911e-001    0.107    1.260e+005    2.320e+003    
4.499    4.053    4.000       0.089         1.628     0.446    0.992      1.906e-001    0.106    1.253e+005    2.345e+003    
4.499    4.049    4.000       0.089         1.636     0.450    0.992      1.901e-001    0.105    1.223e+005    2.334e+003    
4.499    4.044    4.000       0.089         1.644     0.455    0.992      1.890e-001    0.104    1.152e+005    2.313e+003    
4.499    4.040    4.000       0.089         1.654     0.459    0.992      1.891e-001    0.103    1.137e+005    2.360e+003    
4.499    4.035    4.000       0.088         1.662     0.464    0.992      1.879e-001    0.102    1.033e+005    2.247e+003    
4.499    4.031    4.000       0.088         1.669     0.468    0.992      1.874e-001    0.101    1.032e+005    2.307e+003    
4.499    4.027    4.000       0.088         1.677     0.472    0.991      1.868e-001    0.100    9.839e+004    2.260e+003    
4.499    4.022    4.000       0.088         1.687     0.477    0.991      1.863e-001    0.098    9.665e+004    2.311e+003    
4.499    4.018    4.000       0.088         1.695     0.481    0.991      1.857e-001    0.098    9.277e+004    2.286e+003    
4.499    4.013    4.000       0.088         1.703     0.486    0.991      1.845e-001    0.096    8.855e+004    2.300e+003    
4.499    4.009    4.000       0.088         1.711     0.490    0.991      1.840e-001    0.096    8.126e+004    2.253e+003    
4.499    4.004    4.000       0.088         1.721     0.495    0.991      1.834e-001    0.094    8.169e+004    2.312e+003    
4.499    4.000    4.000       0.088         1.729     0.499    0.991      1.828e-001    0.094    7.832e+004    2.365e+003    
4.499    3.995    4.000       0.088         1.737     0.504    0.991      1.817e-001    0.093    7.678e+004    2.332e+003    
4.499    3.991    4.000       0.087         1.745     0.508    0.990      1.811e-001    0.092    7.607e+004    2.429e+003    
4.499    3.987    4.000       0.087         1.753     0.512    0.990      1.805e-001    0.091    7.711e+004    2.423e+003    
4.499    3.982    4.000       0.087         1.764     0.517    0.990      1.799e-001    0.090    7.697e+004    2.546e+003    
4.499    3.978    4.000       0.087         1.772     0.521    0.990      1.793e-001    0.089    7.210e+004    2.501e+003    
4.499    3.973    4.000       0.087         1.780     0.526    0.990      1.782e-001    0.088    6.913e+004    2.588e+003    
4.499    3.969    4.000       0.087         1.788     0.530    0.990      1.776e-001    0.087    6.780e+004    2.622e+003    
4.499    3.964    4.000       0.087         1.796     0.535    0.990      1.764e-001    0.087    6.886e+004    2.752e+003    
4.499    3.960    4.000       0.087         1.804     0.539    0.990      1.759e-001    0.086    6.611e+004    2.698e+003    
4.499    3.955    4.000       0.087         1.814     0.544    0.989      1.752e-001    0.085    6.430e+004    2.631e+003    
4.499    3.951    4.000       0.087         1.823     0.548    0.989      1.746e-001    0.084    6.203e+004    2.617e+003    
4.499    3.946    4.000       0.086         1.831     0.553    0.989      1.735e-001    0.083    6.118e+004    2.559e+003    
4.499    3.942    4.000       0.086         1.839     0.557    0.989      1.730e-001    0.083    6.254e+004    2.612e+003    
4.499    3.938    4.000       0.086         1.847     0.561    0.989      1.724e-001    0.082    6.174e+004    2.558e+003    
4.499    3.933    4.000       0.086         1.855     0.566    0.989      1.713e-001    0.081    6.555e+004    2.632e+003    
4.499    3.929    4.000       0.086         1.863     0.570    0.988      1.707e-001    0.081    5.555e+004    2.485e+003    
4.499    3.924    4.000       0.086         1.871     0.575    0.988      1.696e-001    0.080    6.101e+004    2.522e+003    
4.499    3.920    4.000       0.086         1.880     0.579    0.988      1.690e-001    0.079    5.544e+004    2.456e+003    
4.499    3.915    4.000       0.086         1.888     0.584    0.988      1.679e-001    0.078    5.534e+004    2.422e+003    
4.499    3.911    4.000       0.086         1.899     0.588    0.988      1.678e-001    0.078    5.534e+004    2.454e+003    
4.499    3.906    4.000       0.086         1.907     0.593    0.988      1.668e-001    0.077    5.725e+004    2.460e+003    
4.499    3.902    4.000       0.086         1.915     0.597    0.988      1.662e-001    0.076    5.620e+004    2.459e+003    
4.499    3.898    4.000       0.085         1.924     0.601    0.987      1.656e-001    0.076    6.107e+004    2.545e+003    
4.499    3.893    4.000       0.085         1.932     0.606    0.987      1.646e-001    0.075    5.567e+004    2.412e+003    
4.499    3.889    4.000       0.085         1.940     0.610    0.987      1.640e-001    0.074    5.828e+004    2.477e+003    
4.499    3.884    4.000       0.085         1.949     0.615    0.987      1.630e-001    0.074    5.798e+004    2.442e+003    
4.499    3.880    4.000       0.085         1.957     0.619    0.987      1.624e-001    0.073    5.987e+004    2.495e+003    
4.499    3.875    4.000       0.085         1.966     0.624    0.987      1.614e-001    0.073    5.347e+004    2.365e+003    
4.499    3.871    4.000       0.085         1.974     0.628    0.986      1.608e-001    0.072    5.814e+004    2.463e+003    
4.499    3.866    4.000       0.085         1.982     0.633    0.986      1.598e-001    0.071    6.015e+004    2.501e+003    
4.499    3.862    4.000       0.085         1.991     0.637    0.986      1.593e-001    0.071    5.592e+004    2.396e+003    
4.499    3.858    4.000       0.085         1.999     0.641    0.986      1.587e-001    0.070    5.600e+004    2.438e+003    
4.499    3.853    4.000       0.084         2.008     0.646    0.986      1.577e-001    0.070    5.900e+004    2.448e+003    
4.499    3.849    4.000       0.084         2.016     0.650    0.986      1.572e-001    0.069    5.811e+004    2.466e+003    
4.499    3.844    4.000       0.084         2.025     0.655    0.985      1.562e-001    0.069    5.522e+004    2.388e+003    
4.499    3.840    4.000       0.084         2.033     0.659    0.985      1.557e-001    0.068    5.570e+004    2.421e+003    
4.499    3.835    4.000       0.084         2.042     0.664    0.985      1.547e-001    0.067    5.237e+004    2.377e+003    
4.499    3.831    4.000       0.084         2.051     0.668    0.985      1.542e-001    0.067    5.810e+004    2.430e+003    
4.499    3.826    4.000       0.084         2.059     0.673    0.985      1.532e-001    0.066    5.699e+004    2.440e+003    
4.499    3.822    4.000       0.084         2.065     0.677    0.984      1.523e-001    0.066    6.132e+004    2.484e+003    
4.499    3.818    4.000       0.084         2.074     0.681    0.984      1.518e-001    0.065    5.774e+004    2.460e+003    
4.499    3.813    4.000       0.084         2.082     0.686    0.984      1.509e-001    0.065    6.040e+004    2.491e+003    
4.499    3.809    4.000       0.083         2.091     0.690    0.984      1.504e-001    0.064    5.790e+004    2.481e+003    
4.499    3.804    4.000       0.083         2.100     0.695    0.984      1.495e-001    0.064    5.735e+004    2.462e+003    
4.499    3.800    4.000       0.083         2.108     0.699    0.984      1.490e-001    0.063    5.938e+004    2.470e+003    
4.499    3.795    4.000       0.083         2.117     0.704    0.983      1.481e-001    0.063    5.631e+004    2.457e+003    
4.499    3.791    4.000       0.083         2.126     0.708    0.983      1.476e-001    0.063    5.977e+004    2.485e+003    
4.499    3.786    4.000       0.083         2.135     0.713    0.983      1.467e-001    0.062    5.749e+004    2.495e+003    
4.499    3.782    4.000       0.083         2.143     0.717    0.983      1.462e-001    0.062    5.676e+004    2.466e+003    
4.499    3.778    4.000       0.083         2.152     0.721    0.983      1.457e-001    0.061    5.703e+004    2.441e+003    
4.499    3.773    4.000       0.083         2.158     0.726    0.982      1.445e-001    0.061    5.831e+004    2.486e+003    
4.499    3.769    4.000       0.083         2.167     0.730    0.982      1.440e-001    0.060    6.222e+004    2.529e+003    
4.499    3.764    4.000       0.083         2.176     0.735    0.982      1.432e-001    0.060    6.005e+004    2.539e+003    
4.499    3.760    4.000       0.082         2.184     0.739    0.982      1.427e-001    0.059    5.669e+004    2.473e+003    
4.499    3.755    4.000       0.082         2.193     0.744    0.982      1.419e-001    0.059    5.813e+004    2.472e+003    
4.499    3.751    4.000       0.082         2.202     0.748    0.981      1.414e-001    0.059    5.912e+004    2.516e+003    
4.499    3.746    4.000       0.082         2.211     0.753    0.981      1.406e-001    0.058    6.157e+004    2.525e+003    
4.499    3.742    4.000       0.082         2.217     0.757    0.981      1.398e-001    0.058    5.848e+004    2.495e+003    
4.499    3.738    4.000       0.082         2.226     0.761    0.981      1.393e-001    0.057    5.960e+004    2.499e+003    
4.499    3.733    4.000       0.082         2.235     0.766    0.980      1.385e-001    0.057    5.747e+004    2.521e+003    
4.499    3.729    4.000       0.082         2.244     0.770    0.980      1.381e-001    0.057    6.975e+004    2.665e+003    
4.499    3.724    4.000       0.082         2.253     0.775    0.980      1.373e-001    0.056    5.976e+004    2.526e+003    
4.499    3.720    4.000       0.082         2.262     0.779    0.980      1.368e-001    0.056    5.486e+004    2.486e+003    
4.499    3.715    4.000       0.081         2.268     0.784    0.980      1.358e-001    0.055    5.561e+004    2.461e+003    
4.499    3.711    4.000       0.081         2.277     0.788    0.979      1.353e-001    0.055    6.176e+004    2.623e+003    
4.499    3.706    4.000       0.081         2.286     0.793    0.979      1.346e-001    0.055    5.933e+004    2.502e+003    
4.499    3.702    4.000       0.081         2.295     0.797    0.979      1.341e-001    0.054    6.208e+004    2.539e+003    
4.499    3.697    4.000       0.081         2.301     0.802    0.979      1.331e-001    0.054    6.101e+004    2.547e+003    
4.499    3.693    4.000       0.081         2.310     0.806    0.978      1.327e-001    0.054    5.540e+004    2.420e+003    
4.499    3.689    4.000       0.081         2.320     0.810    0.978      1.322e-001    0.053    5.081e+004    2.375e+003    
4.499    3.684    4.000       0.081         2.329     0.815    0.978      1.315e-001    0.053    5.544e+004    2.437e+003    
4.499    3.680    4.000       0.081         2.338     0.819    0.978      1.311e-001    0.052    5.836e+004    2.448e+003    
4.499    3.675    4.000       0.081         2.344     0.824    0.978      1.301e-001    0.052    5.749e+004    2.456e+003    
4.499    3.671    4.000       0.080         2.353     0.828    0.977      1.297e-001    0.052    5.184e+004    2.367e+003    
4.499    3.666    4.000       0.080         2.362     0.833    0.977      1.290e-001    0.051    5.257e+004    2.345e+003    
4.499    3.662    4.000       0.080         2.372     0.837    0.977      1.286e-001    0.051    5.211e+004    2.351e+003    
4.499    3.657    4.000       0.080         2.378     0.842    0.977      1.276e-001    0.051    5.551e+004    2.375e+003    
4.499    3.653    4.000       0.080         2.387     0.846    0.976      1.272e-001    0.050    5.202e+004    2.339e+003    
4.499    3.649    4.000       0.080         2.396     0.850    0.976      1.268e-001    0.050    5.249e+004    2.345e+003    
4.499    3.644    4.000       0.080         2.402     0.855    0.976      1.259e-001    0.050    5.244e+004    2.310e+003    
4.499    3.640    4.000       0.080         2.412     0.859    0.976      1.255e-001    0.049    4.918e+004    2.268e+003    
4.499    3.635    4.000       0.080         2.421     0.864    0.975      1.248e-001    0.049    4.834e+004    2.228e+003    
4.499    3.631    4.000       0.080         2.430     0.868    0.975      1.244e-001    0.049    4.870e+004    2.256e+003    
4.499    3.626    4.000       0.079         2.437     0.873    0.975      1.235e-001    0.049    4.723e+004    2.225e+003    
4.499    3.622    4.000       0.079         2.446     0.877    0.975      1.231e-001    0.048    4.674e+004    2.186e+003    
4.499    3.617    4.000       0.079         2.455     0.882    0.974      1.225e-001    0.048    4.589e+004    2.186e+003    
4.499    3.613    4.000       0.079         2.462     0.886    0.974      1.219e-001    0.048    4.233e+004    2.100e+003    
4.499    3.609    4.000       0.079         2.471     0.890    0.974      1.215e-001    0.047    4.411e+004    2.152e+003    
4.499    3.604    4.000       0.079         2.481     0.895    0.974      1.209e-001    0.047    4.284e+004    2.119e+003    
4.499    3.600    4.000       0.079         2.487     0.899    0.973      1.203e-001    0.047    4.404e+004    2.113e+003    
4.499    3.595    4.000       0.079         2.496     0.904    0.973      1.197e-001    0.046    4.343e+004    2.120e+003    
4.499    3.591    4.000       0.079         2.506     0.908    0.973      1.193e-001    0.046    4.227e+004    2.100e+003    
4.499    3.586    4.000       0.079         2.512     0.913    0.972      1.185e-001    0.046    4.466e+004    2.115e+003    
4.499    3.582    4.000       0.079         2.522     0.917    0.972      1.181e-001    0.046    4.176e+004    2.078e+003    
4.499    3.577    4.000       0.078         2.531     0.922    0.972      1.175e-001    0.045    4.092e+004    2.043e+003    
4.499    3.573    4.000       0.078         2.538     0.926    0.972      1.169e-001    0.045    4.234e+004    2.090e+003    
4.499    3.569    4.000       0.078         2.547     0.930    0.971      1.166e-001    0.045    3.955e+004    2.036e+003    
4.499    3.564    4.000       0.078         2.557     0.935    0.971      1.160e-001    0.045    4.206e+004    2.055e+003    
4.499    3.560    4.000       0.078         2.563     0.939    0.971      1.155e-001    0.044    4.197e+004    2.070e+003    
4.499    3.555    4.000       0.078         2.573     0.944    0.971      1.149e-001    0.044    3.985e+004    2.036e+003    
4.499    3.551    4.000       0.078         2.582     0.948    0.970      1.145e-001    0.044    4.100e+004    2.033e+003    
4.499    3.546    4.000       0.078         2.589     0.953    0.970      1.138e-001    0.043    4.078e+004    2.044e+003    
4.499    3.542    4.000       0.078         2.599     0.957    0.970      1.134e-001    0.043    4.328e+004    2.070e+003    
4.499    3.537    4.000       0.078         2.608     0.962    0.969      1.129e-001    0.043    4.103e+004    2.053e+003    
4.499    3.533    4.000       0.077         2.615     0.966    0.969      1.123e-001    0.043    3.861e+004    2.007e+003    
4.499    3.529    4.000       0.077         2.624     0.970    0.969      1.120e-001    0.042    3.749e+004    1.965e+003    
4.499    3.524    4.000       0.077         2.631     0.975    0.969      1.113e-001    0.042    3.794e+004    1.991e+003    
4.499    3.520    4.000       0.077         2.641     0.979    0.968      1.110e-001    0.042    3.813e+004    1.999e+003    
4.499    3.515    4.000       0.077         2.650     0.984    0.968      1.104e-001    0.042    3.935e+004    1.998e+003    
4.499    3.511    4.000       0.077         2.657     0.988    0.968      1.099e-001    0.042    3.707e+004    1.972e+003    
4.499    3.506    4.000       0.077         2.667     0.993    0.967      1.094e-001    0.041    4.082e+004    2.024e+003    
4.499    3.502    4.000       0.077         2.673     0.997    0.967      1.089e-001    0.041    4.012e+004    2.035e+003    
4.499    3.497    4.000       0.077         2.683     1.002    0.967      1.084e-001    0.041    3.666e+004    1.962e+003    
4.499    3.493    4.000       0.077         2.690     1.006    0.966      1.079e-001    0.041    3.871e+004    1.983e+003    
4.499    3.489    4.000       0.076         2.699     1.010    0.966      1.076e-001    0.040    3.603e+004    1.954e+003    
4.499    3.484    4.000       0.076         2.709     1.015    0.966      1.071e-001    0.040    4.026e+004    2.031e+003    
4.499    3.480    4.000       0.076         2.716     1.019    0.966      1.066e-001    0.040    4.012e+004    2.005e+003    
4.499    3.475    4.000       0.076         2.726     1.024    0.965      1.061e-001    0.040    3.793e+004    1.981e+003    
4.499    3.471    4.000       0.076         2.732     1.028    0.965      1.056e-001    0.039    3.480e+004    1.926e+003    
4.499    3.466    4.000       0.076         2.742     1.033    0.965      1.051e-001    0.039    3.752e+004    1.954e+003    
4.499    3.462    4.000       0.076         2.749     1.037    0.964      1.046e-001    0.039    3.477e+004    1.916e+003    
4.499    3.457    4.000       0.076         2.759     1.042    0.964      1.042e-001    0.039    3.597e+004    1.923e+003    
4.499    3.453    4.000       0.076         2.766     1.046    0.964      1.037e-001    0.039    3.696e+004    1.964e+003    
4.499    3.448    4.000       0.076         2.776     1.051    0.963      1.032e-001    0.038    3.828e+004    1.978e+003    
4.499    3.444    4.000       0.075         2.786     1.055    0.963      1.029e-001    0.038    3.453e+004    1.886e+003    
4.499    3.440    4.000       0.075         2.792     1.059    0.963      1.025e-001    0.038    3.699e+004    1.949e+003    
4.499    3.435    4.000       0.075         2.802     1.064    0.962      1.020e-001    0.038    3.180e+004    1.843e+003    
4.499    3.431    4.000       0.075         2.809     1.068    0.962      1.016e-001    0.038    3.410e+004    1.869e+003    
4.499    3.426    4.000       0.075         2.819     1.073    0.962      1.011e-001    0.037    3.351e+004    1.874e+003    
4.499    3.422    4.000       0.075         2.826     1.077    0.961      1.007e-001    0.037    3.350e+004    1.872e+003    
4.499    3.417    4.000       0.075         2.836     1.082    0.961      1.002e-001    0.037    3.344e+004    1.851e+003    
4.499    3.413    4.000       0.075         2.843     1.086    0.961      9.981e-002    0.037    3.528e+004    1.900e+003    
4.499    3.408    4.000       0.075         2.853     1.091    0.960      9.936e-002    0.036    3.431e+004    1.881e+003    
4.499    3.404    4.000       0.075         2.859     1.095    0.960      9.894e-002    0.036    3.597e+004    1.889e+003    
4.499    3.400    4.000       0.075         2.870     1.099    0.960      9.869e-002    0.036    3.547e+004    1.891e+003    
4.499    3.395    4.000       0.074         2.876     1.104    0.959      9.809e-002    0.036    3.236e+004    1.837e+003    
4.499    3.391    4.000       0.074         2.887     1.108    0.959      9.784e-002    0.036    3.129e+004    1.794e+003    
4.499    3.386    4.000       0.074         2.893     1.113    0.959      9.725e-002    0.036    3.358e+004    1.848e+003    
4.499    3.382    4.000       0.074         2.904     1.117    0.958      9.701e-002    0.035    3.108e+004    1.803e+003    
4.499    3.377    4.000       0.074         2.910     1.122    0.958      9.642e-002    0.035    3.023e+004    1.763e+003    
4.499    3.373    4.000       0.074         2.921     1.126    0.958      9.618e-002    0.035    3.019e+004    1.772e+003    
4.499    3.368    4.000       0.074         2.928     1.131    0.957      9.560e-002    0.035    3.079e+004    1.788e+003    
4.499    3.364    4.000       0.074         2.934     1.135    0.957      9.521e-002    0.035    2.987e+004    1.746e+003    
4.499    3.360    4.000       0.074         2.945     1.139    0.957      9.498e-002    0.034    2.949e+004    1.746e+003    
4.499    3.355    4.000       0.074         2.952     1.144    0.956      9.441e-002    0.034    3.072e+004    1.755e+003    
4.499    3.351    4.000       0.073         2.962     1.148    0.956      9.418e-002    0.034    2.861e+004    1.731e+003    
4.499    3.346    4.000       0.073         2.969     1.153    0.955      9.363e-002    0.034    2.956e+004    1.737e+003    
4.499    3.342    4.000       0.073         2.979     1.157    0.955      9.340e-002    0.034    3.202e+004    1.770e+003    
4.499    3.337    4.000       0.073         2.986     1.162    0.955      9.286e-002    0.034    2.806e+004    1.710e+003    
4.499    3.333    4.000       0.073         2.996     1.166    0.954      9.263e-002    0.033    2.839e+004    1.705e+003    
4.499    3.328    4.000       0.073         3.003     1.171    0.954      9.209e-002    0.033    3.215e+004    1.765e+003    
4.499    3.324    4.000       0.073         3.010     1.175    0.954      9.173e-002    0.033    2.814e+004    1.703e+003    
4.499    3.320    4.000       0.073         3.021     1.179    0.953      9.151e-002    0.033    3.148e+004    1.756e+003    
4.499    3.315    4.000       0.073         3.028     1.184    0.953      9.098e-002    0.033    2.657e+004    1.663e+003    
4.499    3.311    4.000       0.073         3.038     1.188    0.952      9.077e-002    0.033    2.648e+004    1.640e+003    
4.499    3.306    4.000       0.072         3.045     1.193    0.952      9.025e-002    0.032    3.096e+004    1.738e+003    
4.499    3.302    4.000       0.072         3.056     1.197    0.952      9.004e-002    0.032    2.749e+004    1.676e+003    
4.499    3.297    4.000       0.072         3.063     1.202    0.951      8.952e-002    0.032    2.669e+004    1.638e+003    
4.499    3.293    4.000       0.072         3.070     1.206    0.951      8.917e-002    0.032    2.697e+004    1.651e+003    
4.499    3.288    4.000       0.072         3.080     1.211    0.951      8.881e-002    0.032    2.608e+004    1.636e+003    
4.499    3.284    4.000       0.072         3.087     1.215    0.950      8.847e-002    0.032    2.471e+004    1.589e+003    
4.499    3.280    4.000       0.072         3.098     1.219    0.950      8.826e-002    0.031    2.135e+004    1.525e+003    
4.499    3.275    4.000       0.072         3.105     1.224    0.949      8.777e-002    0.031    2.603e+004    1.627e+003    
4.499    3.271    4.000       0.072         3.112     1.228    0.949      8.743e-002    0.031    2.513e+004    1.590e+003    
4.499    3.266    4.000       0.072         3.122     1.233    0.949      8.708e-002    0.031    2.535e+004    1.605e+003    
4.499    3.262    4.000       0.071         3.129     1.237    0.948      8.675e-002    0.031    2.388e+004    1.576e+003    
4.499    3.257    4.000       0.071         3.140     1.242    0.948      8.640e-002    0.031    2.580e+004    1.600e+003    
4.499    3.253    4.000       0.071         3.147     1.246    0.947      8.607e-002    0.030    2.673e+004    1.631e+003    
4.499    3.248    4.000       0.071         3.154     1.251    0.947      8.560e-002    0.030    2.640e+004    1.623e+003    
4.499    3.244    4.000       0.071         3.165     1.255    0.947      8.541e-002    0.030    2.440e+004    1.568e+003    
4.499    3.240    4.000       0.071         3.172     1.259    0.946      8.509e-002    0.030    2.427e+004    1.579e+003    
4.499    3.235    4.000       0.071         3.179     1.264    0.946      8.463e-002    0.030    2.514e+004    1.593e+003    
4.499    3.231    4.000       0.071         3.190     1.268    0.945      8.444e-002    0.030    2.441e+004    1.564e+003    
4.499    3.226    4.000       0.071         3.197     1.273    0.945      8.398e-002    0.030    2.412e+004    1.571e+003    
4.499    3.222    4.000       0.071         3.208     1.277    0.945      8.380e-002    0.029    2.291e+004    1.536e+003    
4.499    3.217    4.000       0.071         3.215     1.282    0.944      8.335e-002    0.029    2.528e+004    1.576e+003    
4.499    3.213    4.000       0.070         3.222     1.286    0.944      8.304e-002    0.029    2.070e+004    1.494e+003    
4.499    3.208    4.000       0.070         3.233     1.291    0.943      8.272e-002    0.029    2.155e+004    1.503e+003    
4.499    3.204    4.000       0.070         3.240     1.295    0.943      8.242e-002    0.029    2.473e+004    1.577e+003    
4.499    3.199    4.000       0.070         3.247     1.300    0.942      8.198e-002    0.029    2.187e+004    1.500e+003    
4.499    3.195    4.000       0.070         3.258     1.304    0.942      8.180e-002    0.029    2.597e+004    1.597e+003    
4.499    3.191    4.000       0.070         3.265     1.308    0.942      8.151e-002    0.028    2.502e+004    1.577e+003    
4.499    3.186    4.000       0.070         3.272     1.313    0.941      8.108e-002    0.028    2.532e+004    1.569e+003    
4.499    3.182    4.000       0.070         3.283     1.317    0.941      8.091e-002    0.028    2.184e+004    1.506e+003    
4.499    3.177    4.000       0.070         3.291     1.322    0.940      8.048e-002    0.028    2.303e+004    1.528e+003    
4.499    3.173    4.000       0.070         3.298     1.326    0.940      8.019e-002    0.028    2.076e+004    1.467e+003    
4.499    3.168    4.000       0.069         3.309     1.331    0.939      7.990e-002    0.028    2.115e+004    1.490e+003    
4.499    3.164    4.000       0.069         3.316     1.335    0.939      7.961e-002    0.028    2.250e+004    1.510e+003    
4.499    3.159    4.000       0.069         3.323     1.340    0.938      7.920e-002    0.028    2.376e+004    1.541e+003    
4.499    3.155    4.000       0.069         3.334     1.344    0.938      7.903e-002    0.027    2.263e+004    1.501e+003    
4.499    3.151    4.000       0.069         3.342     1.348    0.938      7.876e-002    0.027    2.182e+004    1.492e+003    
4.499    3.146    4.000       0.069         3.349     1.353    0.937      7.835e-002    0.027    2.328e+004    1.523e+003    
4.499    3.142    4.000       0.069         3.356     1.357    0.937      7.808e-002    0.027    2.478e+004    1.541e+003    
4.499    3.137    4.000       0.069         3.367     1.362    0.936      7.779e-002    0.027    2.233e+004    1.502e+003    
4.499    3.133    4.000       0.069         3.375     1.366    0.936      7.752e-002    0.027    2.132e+004    1.476e+003    
4.499    3.128    4.000       0.069         3.382     1.371    0.935      7.713e-002    0.027    2.319e+004    1.526e+003    
4.499    3.124    4.000       0.068         3.393     1.375    0.935      7.697e-002    0.027    2.202e+004    1.483e+003    
4.499    3.119    4.000       0.068         3.400     1.380    0.934      7.658e-002    0.026    1.900e+004    1.423e+003    
4.499    3.115    4.000       0.068         3.408     1.384    0.934      7.632e-002    0.026    2.032e+004    1.455e+003    
4.499    3.111    4.000       0.068         3.419     1.388    0.933      7.617e-002    0.026    2.145e+004    1.467e+003    
4.499    3.106    4.000       0.068         3.426     1.393    0.933      7.579e-002    0.026    1.980e+004    1.441e+003    
4.499    3.102    4.000       0.068         3.434     1.397    0.932      7.553e-002    0.026    2.186e+004    1.483e+003    
4.499    3.097    4.000       0.068         3.441     1.402    0.932      7.515e-002    0.026    2.453e+004    1.547e+003    
4.499    3.093    4.000       0.068         3.452     1.406    0.931      7.500e-002    0.026    2.080e+004    1.449e+003    
4.499    3.088    4.000       0.068         3.460     1.411    0.931      7.463e-002    0.026    2.196e+004    1.483e+003    
4.499    3.084    4.000       0.068         3.467     1.415    0.931      7.438e-002    0.025    2.288e+004    1.505e+003    
4.499    3.079    4.000       0.067         3.474     1.420    0.930      7.401e-002    0.025    1.938e+004    1.416e+003    
4.499    3.075    4.000       0.067         3.486     1.424    0.930      7.387e-002    0.025    1.822e+004    1.401e+003    
4.499    3.071    4.000       0.067         3.493     1.428    0.929      7.362e-002    0.025    2.191e+004    1.479e+003    
4.499    3.066    4.000       0.067         3.501     1.433    0.929      7.327e-002    0.025    2.121e+004    1.468e+003    
4.499    3.062    4.000       0.067         3.508     1.437    0.928      7.302e-002    0.025    1.994e+004    1.425e+003    
4.499    3.057    4.000       0.067         3.519     1.442    0.928      7.277e-002    0.025    1.935e+004    1.422e+003    
4.499    3.053    4.000       0.067         3.527     1.446    0.927      7.253e-002    0.025    2.043e+004    1.445e+003    
4.499    3.048    4.000       0.067         3.534     1.451    0.927      7.218e-002    0.025    2.111e+004    1.450e+003    
4.499    3.044    4.000       0.067         3.542     1.455    0.926      7.194e-002    0.024    2.022e+004    1.446e+003    
4.499    3.039    4.000       0.067         3.553     1.460    0.926      7.170e-002    0.024    1.807e+004    1.387e+003    
4.499    3.035    4.000       0.067         3.561     1.464    0.925      7.146e-002    0.024    1.997e+004    1.432e+003    
4.499    3.031    4.000       0.066         3.568     1.468    0.925      7.123e-002    0.024    1.751e+004    1.366e+003    
4.499    3.026    4.000       0.066         3.576     1.473    0.924      7.089e-002    0.024    1.843e+004    1.400e+003    
4.499    3.022    4.000       0.066         3.587     1.477    0.924      7.076e-002    0.024    1.979e+004    1.424e+003    
4.499    3.017    4.000       0.066         3.595     1.482    0.923      7.043e-002    0.024    2.287e+004    1.494e+003    
4.499    3.013    4.000       0.066         3.602     1.486    0.923      7.020e-002    0.024    1.884e+004    1.392e+003    
4.499    3.008    4.000       0.066         3.610     1.491    0.922      6.987e-002    0.024    1.967e+004    1.422e+003    
4.499    3.004    4.000       0.066         3.621     1.495    0.921      6.974e-002    0.023    1.902e+004    1.404e+003    
4.499    2.999    4.000       0.066         3.629     1.500    0.921      6.942e-002    0.023    2.006e+004    1.433e+003    
4.499    2.995    4.000       0.066         3.637     1.504    0.920      6.920e-002    0.023    2.034e+004    1.426e+003    
4.499    2.991    4.000       0.066         3.644     1.508    0.920      6.898e-002    0.023    2.003e+004    1.429e+003    
4.499    2.986    4.000       0.065         3.652     1.513    0.919      6.866e-002    0.023    1.884e+004    1.400e+003    
4.499    2.982    4.000       0.065         3.663     1.517    0.919      6.853e-002    0.023    1.892e+004    1.406e+003    
4.499    2.977    4.000       0.065         3.671     1.522    0.918      6.822e-002    0.023    1.657e+004    1.336e+003    
4.499    2.973    4.000       0.065         3.679     1.526    0.918      6.800e-002    0.023    1.895e+004    1.400e+003    
4.499    2.968    4.000       0.065         3.686     1.531    0.917      6.769e-002    0.023    1.951e+004    1.410e+003    
4.499    2.964    4.000       0.065         3.694     1.535    0.917      6.748e-002    0.023    2.022e+004    1.433e+003    
4.499    2.959    4.000       0.065         3.706     1.540    0.916      6.726e-002    0.022    1.890e+004    1.388e+003    
4.499    2.955    4.000       0.065         3.713     1.544    0.916      6.705e-002    0.022    1.751e+004    1.363e+003    
4.499    2.950    4.000       0.065         3.721     1.549    0.915      6.675e-002    0.022    1.875e+004    1.389e+003    
4.499    2.946    4.000       0.065         3.729     1.553    0.914      6.654e-002    0.022    1.870e+004    1.392e+003    
4.499    2.942    4.000       0.064         3.736     1.557    0.914      6.634e-002    0.022    1.767e+004    1.355e+003    
4.499    2.937    4.000       0.064         3.748     1.562    0.913      6.613e-002    0.022    1.946e+004    1.405e+003    
4.499    2.933    4.000       0.064         3.756     1.566    0.913      6.593e-002    0.022    1.561e+004    1.313e+003    
4.499    2.928    4.000       0.064         3.764     1.571    0.912      6.563e-002    0.022    1.750e+004    1.361e+003    
4.499    2.924    4.000       0.064         3.771     1.575    0.912      6.543e-002    0.022    1.833e+004    1.367e+003    
4.499    2.919    4.000       0.064         3.779     1.580    0.911      6.514e-002    0.022    1.842e+004    1.378e+003    
4.499    2.915    4.000       0.064         3.787     1.584    0.911      6.494e-002    0.021    1.859e+004    1.378e+003    
4.499    2.910    4.000       0.064         3.799     1.589    0.910      6.474e-002    0.021    2.002e+004    1.413e+003    
4.499    2.906    4.000       0.064         3.806     1.593    0.909      6.455e-002    0.021    1.762e+004    1.345e+003    
4.499    2.902    4.000       0.064         3.814     1.597    0.909      6.435e-002    0.021    1.548e+004    1.304e+003    
4.499    2.897    4.000       0.063         3.822     1.602    0.908      6.407e-002    0.021    1.461e+004    1.278e+003    
4.499    2.893    4.000       0.063         3.830     1.606    0.908      6.388e-002    0.021    1.696e+004    1.336e+003    
4.499    2.888    4.000       0.063         3.838     1.611    0.907      6.360e-002    0.021    1.841e+004    1.361e+003    
4.499    2.884    4.000       0.063         3.849     1.615    0.907      6.349e-002    0.021    1.902e+004    1.390e+003    
4.499    2.879    4.000       0.063         3.857     1.620    0.906      6.322e-002    0.021    1.607e+004    1.314e+003    
4.499    2.875    4.000       0.063         3.865     1.624    0.905      6.303e-002    0.021    1.498e+004    1.287e+003    
4.499    2.870    4.000       0.063         3.873     1.629    0.905      6.276e-002    0.021    1.475e+004    1.286e+003    
4.499    2.866    4.000       0.063         3.881     1.633    0.904      6.257e-002    0.020    1.848e+004    1.362e+003    
4.499    2.862    4.000       0.063         3.889     1.637    0.904      6.239e-002    0.020    1.580e+004    1.309e+003    
4.499    2.857    4.000       0.063         3.897     1.642    0.903      6.212e-002    0.020    1.781e+004    1.352e+003    
4.499    2.853    4.000       0.063         3.909     1.646    0.902      6.202e-002    0.020    1.734e+004    1.344e+003    
4.499    2.848    4.000       0.062         3.916     1.651    0.902      6.176e-002    0.020    1.657e+004    1.316e+003    
4.499    2.844    4.000       0.062         3.924     1.655    0.901      6.158e-002    0.020    1.659e+004    1.330e+003    
4.499    2.839    4.000       0.062         3.932     1.660    0.901      6.132e-002    0.020    1.578e+004    1.304e+003    
4.499    2.835    4.000       0.062         3.940     1.664    0.900      6.114e-002    0.020    1.561e+004    1.298e+003    
4.499    2.830    4.000       0.062         3.948     1.669    0.899      6.088e-002    0.020    1.478e+004    1.280e+003    
4.499    2.826    4.000       0.062         3.956     1.673    0.899      6.071e-002    0.020    1.786e+004    1.342e+003    
4.499    2.822    4.000       0.062         3.964     1.677    0.898      6.053e-002    0.020    1.532e+004    1.292e+003    
4.499    2.817    4.000       0.062         3.976     1.682    0.898      6.036e-002    0.020    1.813e+004    1.356e+003    
4.499    2.813    4.000       0.062         3.984     1.686    0.897      6.019e-002    0.019    1.497e+004    1.280e+003    
4.499    2.808    4.000       0.062         3.992     1.691    0.896      5.993e-002    0.019    1.556e+004    1.298e+003    
4.499    2.804    4.000       0.061         4.000     1.695    0.896      5.977e-002    0.019    1.695e+004    1.335e+003    
