#
# Source: https://hallcweb.jlab.org/resdata/database/
# JLAB experiment E00-002 hydrogen.
# Uncertainty values shown reflect both systematic and statistical uncertainties.
#
#    E           EP         Theta       Q^2          W^2        Nu          Epsilon      Gamma       x          Sigma       Uncertainty
#    (Gev)       (Gev)      (degrees)   ((Gev/c)^2)  (Gev^2)    (Gev)                                           (nb/Ser*Gev)
#
     2.23750     1.33230    33.13000     0.96923     1.60977     0.90520     0.75384     0.00036     0.00000     0.03828     0.00093
     2.23750     1.31980    33.13000     0.96014     1.64232     0.91770     0.75066     0.00037     0.00000     0.03427     0.00085
     2.23750     1.30730    33.13000     0.95104     1.67487     0.93020     0.74742     0.00038     0.00000     0.03206     0.00080
     2.23750     1.29480    33.13000     0.94195     1.70742     0.94270     0.74411     0.00039     0.00000     0.02978     0.00076
     2.23750     1.28230    33.13000     0.93286     1.73997     0.95520     0.74073     0.00040     0.00000     0.02914     0.00075
     2.23750     1.26980    33.13000     0.92376     1.77252     0.96770     0.73728     0.00041     0.00000     0.02708     0.00072
     2.23750     1.25730    33.13000     0.91467     1.80508     0.98020     0.73377     0.00042     0.00000     0.02798     0.00073
     2.23750     1.24470    33.13000     0.90550     1.83789     0.99280     0.73016     0.00043     0.00000     0.02793     0.00074
     2.23750     1.23220    33.13000     0.89641     1.87044     1.00530     0.72651     0.00044     0.00000     0.02733     0.00073
     2.23750     1.21970    33.13000     0.88732     1.90299     1.01780     0.72279     0.00045     0.00000     0.02835     0.00075
     2.23750     1.20720    33.13000     0.87822     1.93554     1.03030     0.71899     0.00045     0.00000     0.02889     0.00076
     2.23750     1.19470    33.13000     0.86913     1.96809     1.04280     0.71513     0.00046     0.00000     0.02907     0.00077
     2.23750     1.18220    33.13000     0.86004     2.00064     1.05530     0.71120     0.00047     0.00000     0.02987     0.00079
     2.23750     1.16970    33.13000     0.85094     2.03319     1.06780     0.70719     0.00048     0.00000     0.03141     0.00082
     2.23750     1.15720    33.13000     0.84185     2.06574     1.08030     0.70311     0.00048     0.00000     0.03437     0.00087
     2.23750     1.08930    33.13000     0.79245     2.24255     1.14820     0.67966     0.00051     0.00000     0.05636     0.00140
     2.23750     1.07920    33.13000     0.78510     2.26885     1.15830     0.67598     0.00052     0.00000     0.05658     0.00141
     2.23750     1.06900    33.13000     0.77768     2.29541     1.16850     0.67221     0.00052     0.00000     0.05511     0.00138
     2.23750     1.05890    33.13000     0.77034     2.32172     1.17860     0.66843     0.00053     0.00000     0.05411     0.00136
     2.23750     1.04880    33.13000     0.76299     2.34802     1.18870     0.66461     0.00053     0.00000     0.05103     0.00130
     2.23750     1.03860    33.13000     0.75557     2.37458     1.19890     0.66069     0.00053     0.00000     0.04824     0.00125
     2.23750     1.02850    33.13000     0.74822     2.40088     1.20900     0.65676     0.00054     0.00000     0.04690     0.00123
     2.23750     1.01840    33.13000     0.74087     2.42718     1.21910     0.65278     0.00054     0.00000     0.04677     0.00123
     2.23750     1.00820    33.13000     0.73345     2.45374     1.22930     0.64871     0.00054     0.00000     0.04482     0.00119
     2.23750     0.99810    33.13000     0.72611     2.48004     1.23940     0.64462     0.00054     0.00000     0.04348     0.00118
     2.23750     0.98800    33.13000     0.71876     2.50634     1.24950     0.64049     0.00055     0.00000     0.04210     0.00116
     2.23750     0.97780    33.13000     0.71134     2.53290     1.25970     0.63626     0.00055     0.00000     0.04174     0.00116
     2.23750     0.96770    33.13000     0.70399     2.55920     1.26980     0.63202     0.00055     0.00000     0.04235     0.00117
     2.23750     0.95760    33.13000     0.69664     2.58550     1.27990     0.62773     0.00055     0.00000     0.04473     0.00123
     2.23750     0.94740    33.13000     0.68922     2.61207     1.29010     0.62334     0.00056     0.00000     0.04527     0.00124
     2.23750     0.93730    33.13000     0.68187     2.63837     1.30020     0.61895     0.00056     0.00000     0.04784     0.00129
     2.23750     0.88230    33.13000     0.64186     2.78159     1.35520     0.59409     0.00057     0.00000     0.05544     0.00169
     2.23750     0.87400    33.13000     0.63582     2.80320     1.36350     0.59020     0.00057     0.00000     0.05801     0.00174
     2.23750     0.86580    33.13000     0.62986     2.82455     1.37170     0.58632     0.00057     0.00000     0.05818     0.00175
     2.23750     0.85760    33.13000     0.62389     2.84591     1.37990     0.58241     0.00057     0.00000     0.05886     0.00175
     2.23750     0.84940    33.13000     0.61793     2.86726     1.38810     0.57846     0.00057     0.00000     0.06041     0.00180
     2.23750     0.84120    33.13000     0.61196     2.88861     1.39630     0.57448     0.00057     0.00000     0.05814     0.00176
     2.23750     0.83300    33.13000     0.60600     2.90997     1.40450     0.57047     0.00057     0.00000     0.05755     0.00175
     2.23750     0.82480    33.13000     0.60003     2.93132     1.41270     0.56641     0.00057     0.00000     0.05781     0.00177
     2.23750     0.81660    33.13000     0.59407     2.95267     1.42090     0.56233     0.00057     0.00000     0.05640     0.00176
     2.23750     0.80840    33.13000     0.58810     2.97403     1.42910     0.55821     0.00057     0.00000     0.05702     0.00179
     2.23750     0.80020    33.13000     0.58214     2.99538     1.43730     0.55405     0.00057     0.00000     0.05600     0.00177
     2.23750     0.79200    33.13000     0.57617     3.01673     1.44550     0.54986     0.00057     0.00000     0.05243     0.00173
     2.23750     0.78380    33.13000     0.57020     3.03808     1.45370     0.54563     0.00057     0.00000     0.05081     0.00170
     2.23750     0.77560    33.13000     0.56424     3.05944     1.46190     0.54137     0.00058     0.00000     0.05139     0.00175
     2.23750     0.76740    33.13000     0.55827     3.08079     1.47010     0.53707     0.00058     0.00000     0.04870     0.00167
     2.23750     0.75910    33.13000     0.55224     3.10240     1.47840     0.53268     0.00058     0.00000     0.05094     0.00172
     2.23750     0.71470    33.13000     0.51994     3.21802     1.52280     0.50861     0.00058     0.00000     0.04751     0.00182
     2.23750     0.70800    33.13000     0.51506     3.23547     1.52950     0.50489     0.00058     0.00000     0.04869     0.00182
     2.23750     0.70140    33.13000     0.51026     3.25266     1.53610     0.50120     0.00058     0.00000     0.04724     0.00181
     2.23750     0.69470    33.13000     0.50539     3.27010     1.54280     0.49743     0.00058     0.00000     0.04609     0.00177
     2.23750     0.68810    33.13000     0.50058     3.28729     1.54940     0.49369     0.00058     0.00000     0.04810     0.00182
     2.23750     0.68140    33.13000     0.49571     3.30474     1.55610     0.48988     0.00058     0.00000     0.04613     0.00180
     2.23750     0.67480    33.13000     0.49091     3.32192     1.56270     0.48610     0.00058     0.00000     0.04689     0.00181
     2.23750     0.66810    33.13000     0.48603     3.33937     1.56940     0.48224     0.00057     0.00000     0.04587     0.00181
     2.23750     0.66150    33.13000     0.48123     3.35656     1.57600     0.47841     0.00057     0.00000     0.04820     0.00185
     2.23750     0.65480    33.13000     0.47636     3.37401     1.58270     0.47451     0.00057     0.00000     0.04724     0.00189
     2.23750     0.64820    33.13000     0.47156     3.39119     1.58930     0.47064     0.00057     0.00000     0.04787     0.00188
     2.23750     0.64150    33.13000     0.46668     3.40864     1.59600     0.46669     0.00057     0.00000     0.04674     0.00189
     2.23750     0.63490    33.13000     0.46188     3.42583     1.60260     0.46277     0.00057     0.00000     0.04753     0.00192
     2.23750     0.62820    33.13000     0.45701     3.44327     1.60930     0.45877     0.00057     0.00000     0.04604     0.00191
     2.23750     0.62160    33.13000     0.45221     3.46046     1.61590     0.45481     0.00057     0.00000     0.04743     0.00192
     2.23750     0.61490    33.13000     0.44733     3.47791     1.62260     0.45077     0.00057     0.00000     0.04825     0.00196
     2.23750     0.57890    33.13000     0.42114     3.57165     1.65860     0.42867     0.00057     0.00000     0.05089     0.00229
     2.23750     0.57350    33.13000     0.41721     3.58571     1.66400     0.42530     0.00057     0.00000     0.05094     0.00227
     2.23750     0.56810    33.13000     0.41329     3.59977     1.66940     0.42191     0.00057     0.00000     0.04844     0.00223
     2.23750     0.56270    33.13000     0.40936     3.61384     1.67480     0.41851     0.00057     0.00000     0.04959     0.00228
     2.23750     0.55730    33.13000     0.40543     3.62790     1.68020     0.41510     0.00057     0.00000     0.04706     0.00221
     2.23750     0.55200    33.13000     0.40157     3.64170     1.68550     0.41173     0.00057     0.00000     0.05089     0.00232
     2.23750     0.54660    33.13000     0.39764     3.65576     1.69090     0.40829     0.00057     0.00000     0.04756     0.00227
     2.23750     0.54120    33.13000     0.39372     3.66982     1.69630     0.40483     0.00057     0.00000     0.04663     0.00231
     2.23750     0.53580    33.13000     0.38979     3.68389     1.70170     0.40136     0.00057     0.00000     0.04647     0.00231
     2.23750     0.53040    33.13000     0.38586     3.69795     1.70710     0.39787     0.00057     0.00000     0.04839     0.00239
     2.23750     0.52500    33.13000     0.38193     3.71201     1.71250     0.39437     0.00057     0.00000     0.05058     0.00247
     2.23750     0.51970    33.13000     0.37808     3.72581     1.71780     0.39093     0.00057     0.00000     0.04646     0.00242
     2.23750     0.51430    33.13000     0.37415     3.73987     1.72320     0.38740     0.00056     0.00000     0.04856     0.00246
     2.23750     0.50890    33.13000     0.37022     3.75393     1.72860     0.38386     0.00056     0.00000     0.05078     0.00252
     2.23750     0.50350    33.13000     0.36629     3.76800     1.73400     0.38030     0.00056     0.00000     0.04860     0.00249
     2.23750     0.49810    33.13000     0.36236     3.78206     1.73940     0.37674     0.00056     0.00000     0.04928     0.00249
     2.23750     0.46890    33.13000     0.34112     3.85809     1.76860     0.35720     0.00056     0.00000     0.04775     0.00229
     2.23750     0.46460    33.13000     0.33799     3.86929     1.77290     0.35429     0.00056     0.00000     0.05008     0.00234
     2.23750     0.46020    33.13000     0.33479     3.88075     1.77730     0.35131     0.00056     0.00000     0.04665     0.00226
     2.23750     0.45580    33.13000     0.33159     3.89221     1.78170     0.34831     0.00056     0.00000     0.04755     0.00231
     2.23750     0.45150    33.13000     0.32846     3.90341     1.78600     0.34538     0.00056     0.00000     0.04897     0.00238
     2.23750     0.44710    33.13000     0.32526     3.91486     1.79040     0.34237     0.00056     0.00000     0.04976     0.00242
     2.23750     0.44270    33.13000     0.32206     3.92632     1.79480     0.33935     0.00056     0.00000     0.04702     0.00236
     2.23750     0.43840    33.13000     0.31893     3.93752     1.79910     0.33639     0.00056     0.00000     0.04836     0.00242
     2.23750     0.43400    33.13000     0.31573     3.94898     1.80350     0.33335     0.00056     0.00000     0.04819     0.00248
     2.23750     0.42970    33.13000     0.31260     3.96017     1.80780     0.33037     0.00056     0.00000     0.04876     0.00257
     2.23750     0.42530    33.13000     0.30940     3.97163     1.81220     0.32732     0.00056     0.00000     0.04665     0.00256
     2.23750     0.42090    33.13000     0.30620     3.98309     1.81660     0.32425     0.00056     0.00000     0.04746     0.00253
     2.23750     0.41660    33.13000     0.30307     3.99429     1.82090     0.32125     0.00056     0.00000     0.04647     0.00260
     2.23750     0.41220    33.13000     0.29987     4.00574     1.82530     0.31817     0.00055     0.00000     0.04745     0.00260
     2.23750     0.40780    33.13000     0.29667     4.01720     1.82970     0.31508     0.00055     0.00000     0.04798     0.00265
     2.23750     0.40350    33.13000     0.29354     4.02840     1.83400     0.31206     0.00055     0.00000     0.04758     0.00259
     2.23750     1.22900    41.32000     1.36926     1.40360     1.00850     0.66863     0.00012     0.00000     0.00978     0.00025
     2.23750     1.21760    41.32000     1.35656     1.43769     1.01990     0.66560     0.00013     0.00000     0.01201     0.00029
     2.23750     1.20620    41.32000     1.34385     1.47178     1.03130     0.66251     0.00014     0.00000     0.01350     0.00032
     2.23750     1.19470    41.32000     1.33104     1.50618     1.04280     0.65933     0.00015     0.00000     0.01409     0.00033
     2.23750     1.18330    41.32000     1.31834     1.54027     1.05420     0.65613     0.00015     0.00000     0.01344     0.00032
     2.23750     1.17190    41.32000     1.30564     1.57436     1.06560     0.65288     0.00016     0.00000     0.01266     0.00030
     2.23750     1.17120    41.32000     1.30486     1.57646     1.06630     0.65268     0.00016     0.00000     0.01190     0.00028
     2.23750     1.16040    41.32000     1.29283     1.60876     1.07710     0.64954     0.00016     0.00000     0.01105     0.00027
     2.23750     1.16030    41.32000     1.29272     1.60905     1.07720     0.64951     0.00016     0.00000     0.01131     0.00027
     2.23750     1.14940    41.32000     1.28057     1.64165     1.08810     0.64630     0.00017     0.00000     0.01051     0.00026
     2.23750     1.14900    41.32000     1.28013     1.64285     1.08850     0.64618     0.00017     0.00000     0.01048     0.00026
     2.23750     1.13850    41.32000     1.26843     1.67425     1.09900     0.64303     0.00018     0.00000     0.00981     0.00024
     2.23750     1.13760    41.32000     1.26743     1.67694     1.09990     0.64276     0.00018     0.00000     0.00983     0.00025
     2.23750     1.12760    41.32000     1.25628     1.70685     1.10990     0.63971     0.00018     0.00000     0.00946     0.00024
     2.23750     1.12620    41.32000     1.25472     1.71104     1.11130     0.63928     0.00018     0.00000     0.00946     0.00025
     2.23750     1.11670    41.32000     1.24414     1.73945     1.12080     0.63634     0.00019     0.00000     0.00948     0.00024
     2.23750     1.11470    41.32000     1.24191     1.74543     1.12280     0.63572     0.00019     0.00000     0.00972     0.00025
     2.23750     1.10580    41.32000     1.23200     1.77205     1.13170     0.63292     0.00019     0.00000     0.00930     0.00023
     2.23750     1.10330    41.32000     1.22921     1.77952     1.13420     0.63213     0.00019     0.00000     0.00910     0.00025
     2.23750     1.09490    41.32000     1.21985     1.80464     1.14260     0.62944     0.00020     0.00000     0.00916     0.00023
     2.23750     1.09190    41.32000     1.21651     1.81362     1.14560     0.62848     0.00020     0.00000     0.00912     0.00025
     2.23750     1.08410    41.32000     1.20782     1.83694     1.15340     0.62595     0.00020     0.00000     0.00911     0.00024
     2.23750     1.08040    41.32000     1.20370     1.84801     1.15710     0.62474     0.00020     0.00000     0.00910     0.00025
     2.23750     1.07320    41.32000     1.19568     1.86954     1.16430     0.62237     0.00021     0.00000     0.00953     0.00024
     2.23750     1.06900    41.32000     1.19100     1.88210     1.16850     0.62098     0.00021     0.00000     0.00963     0.00026
     2.23750     1.06230    41.32000     1.18353     1.90214     1.17520     0.61874     0.00021     0.00000     0.00996     0.00025
     2.23750     1.05760    41.32000     1.17830     1.91620     1.17990     0.61715     0.00021     0.00000     0.01004     0.00026
     2.23750     1.05140    41.32000     1.17139     1.93474     1.18610     0.61505     0.00022     0.00000     0.01008     0.00026
     2.23750     1.04470    41.32000     1.16392     1.95478     1.19280     0.61276     0.00022     0.00000     0.01019     0.00031
     2.23750     1.04050    41.32000     1.15924     1.96734     1.19700     0.61131     0.00022     0.00000     0.01008     0.00026
     2.23750     1.03500    41.32000     1.15312     1.98378     1.20250     0.60940     0.00022     0.00000     0.01068     0.00033
     2.23750     1.02960    41.32000     1.14710     1.99993     1.20790     0.60751     0.00023     0.00000     0.01074     0.00027
     2.23750     1.02520    41.32000     1.14220     2.01309     1.21230     0.60597     0.00023     0.00000     0.01113     0.00033
     2.23750     1.01870    41.32000     1.13496     2.03253     1.21880     0.60366     0.00023     0.00000     0.01150     0.00029
     2.23750     1.01550    41.32000     1.13139     2.04210     1.22200     0.60252     0.00023     0.00000     0.01202     0.00035
     2.23750     1.00780    41.32000     1.12281     2.06513     1.22970     0.59976     0.00023     0.00000     0.01258     0.00030
     2.23750     1.00580    41.32000     1.12058     2.07111     1.23170     0.59904     0.00023     0.00000     0.01250     0.00036
     2.23750     0.99610    41.32000     1.10978     2.10012     1.24140     0.59551     0.00024     0.00000     0.01279     0.00036
     2.23750     0.98640    41.32000     1.09897     2.12913     1.25110     0.59193     0.00024     0.00000     0.01469     0.00040
     2.23750     0.97670    41.32000     1.08816     2.15814     1.26080     0.58831     0.00025     0.00000     0.01624     0.00044
     2.23750     0.96690    41.32000     1.07725     2.18745     1.27060     0.58461     0.00025     0.00000     0.01862     0.00048
     2.23750     0.95720    41.32000     1.06644     2.21646     1.28030     0.58091     0.00025     0.00000     0.02023     0.00052
     2.23750     0.94750    41.32000     1.05563     2.24547     1.29000     0.57715     0.00026     0.00000     0.02094     0.00053
     2.23750     0.93780    41.32000     1.04482     2.27448     1.29970     0.57336     0.00026     0.00000     0.02102     0.00054
     2.23750     0.92810    41.32000     1.03402     2.30349     1.30940     0.56952     0.00026     0.00000     0.02048     0.00053
     2.23750     0.91840    41.32000     1.02321     2.33250     1.31910     0.56563     0.00026     0.00000     0.02045     0.00054
     2.23750     0.90860    41.32000     1.01229     2.36181     1.32890     0.56166     0.00027     0.00000     0.01868     0.00050
     2.23750     0.89890    41.32000     1.00148     2.39081     1.33860     0.55768     0.00027     0.00000     0.01843     0.00049
     2.23750     0.88800    41.32000     0.98934     2.42341     1.34950     0.55315     0.00027     0.00000     0.01648     0.00049
     2.23750     0.87970    41.32000     0.98009     2.44824     1.35780     0.54967     0.00028     0.00000     0.01717     0.00050
     2.23750     0.87140    41.32000     0.97085     2.47306     1.36610     0.54615     0.00028     0.00000     0.01661     0.00049
     2.23750     0.86320    41.32000     0.96171     2.49758     1.37430     0.54264     0.00028     0.00000     0.01676     0.00049
     2.23750     0.85490    41.32000     0.95246     2.52240     1.38260     0.53906     0.00028     0.00000     0.01646     0.00049
     2.23750     0.84660    41.32000     0.94322     2.54723     1.39090     0.53544     0.00028     0.00000     0.01692     0.00050
     2.23750     0.83840    41.32000     0.93408     2.57175     1.39910     0.53183     0.00029     0.00000     0.01724     0.00051
     2.23750     0.83010    41.32000     0.92483     2.59657     1.40740     0.52815     0.00029     0.00000     0.01756     0.00052
     2.23750     0.82190    41.32000     0.91570     2.62110     1.41560     0.52447     0.00029     0.00000     0.01776     0.00052
     2.23750     0.81360    41.32000     0.90645     2.64592     1.42390     0.52072     0.00029     0.00000     0.01810     0.00054
     2.23750     0.80540    41.32000     0.89731     2.67044     1.43210     0.51698     0.00029     0.00000     0.01897     0.00055
     2.23750     0.79710    41.32000     0.88807     2.69526     1.44040     0.51316     0.00029     0.00000     0.01964     0.00057
     2.23750     0.78880    41.32000     0.87882     2.72009     1.44870     0.50930     0.00030     0.00000     0.02052     0.00059
     2.23750     0.78060    41.32000     0.86968     2.74461     1.45690     0.50546     0.00030     0.00000     0.02188     0.00062
     2.23750     0.77230    41.32000     0.86044     2.76943     1.46520     0.50154     0.00030     0.00000     0.02302     0.00064
     2.23750     0.76410    41.32000     0.85130     2.79396     1.47340     0.49763     0.00030     0.00000     0.02404     0.00066
     2.23750     0.75490    41.32000     0.84105     2.82147     1.48260     0.49320     0.00030     0.00000     0.02378     0.00078
     2.23750     0.74780    41.32000     0.83314     2.84270     1.48970     0.48976     0.00030     0.00000     0.02558     0.00082
     2.23750     0.74080    41.32000     0.82534     2.86364     1.49670     0.48634     0.00031     0.00000     0.02470     0.00080
     2.23750     0.73380    41.32000     0.81754     2.88457     1.50370     0.48290     0.00031     0.00000     0.02529     0.00081
     2.23750     0.72680    41.32000     0.80974     2.90551     1.51070     0.47943     0.00031     0.00000     0.02484     0.00081
     2.23750     0.71980    41.32000     0.80195     2.92644     1.51770     0.47593     0.00031     0.00000     0.02463     0.00082
     2.23750     0.71270    41.32000     0.79404     2.94768     1.52480     0.47236     0.00031     0.00000     0.02413     0.00080
     2.23750     0.70570    41.32000     0.78624     2.96861     1.53180     0.46882     0.00031     0.00000     0.02379     0.00080
     2.23750     0.69870    41.32000     0.77844     2.98955     1.53880     0.46525     0.00031     0.00000     0.02343     0.00080
     2.23750     0.69170    41.32000     0.77064     3.01048     1.54580     0.46166     0.00031     0.00000     0.02372     0.00082
     2.23750     0.68460    41.32000     0.76273     3.03171     1.55290     0.45799     0.00031     0.00000     0.02392     0.00082
     2.23750     0.67760    41.32000     0.75493     3.05265     1.55990     0.45435     0.00031     0.00000     0.02269     0.00081
     2.23750     0.67060    41.32000     0.74713     3.07358     1.56690     0.45069     0.00032     0.00000     0.02197     0.00081
     2.23750     0.66360    41.32000     0.73933     3.09452     1.57390     0.44700     0.00032     0.00000     0.02159     0.00081
     2.23750     0.65660    41.32000     0.73153     3.11545     1.58090     0.44329     0.00032     0.00000     0.02157     0.00081
     2.23750     0.64950    41.32000     0.72362     3.13669     1.58800     0.43949     0.00032     0.00000     0.02120     0.00078
     2.23750     0.64160    41.32000     0.71482     3.16031     1.59590     0.43525     0.00032     0.00000     0.02216     0.00097
     2.23750     0.63560    41.32000     0.70814     3.17826     1.60190     0.43200     0.00032     0.00000     0.02262     0.00098
     2.23750     0.62960    41.32000     0.70145     3.19620     1.60790     0.42873     0.00032     0.00000     0.02154     0.00096
     2.23750     0.62370    41.32000     0.69488     3.21385     1.61380     0.42551     0.00032     0.00000     0.02168     0.00096
     2.23750     0.61770    41.32000     0.68819     3.23179     1.61980     0.42221     0.00032     0.00000     0.02130     0.00096
     2.23750     0.61170    41.32000     0.68151     3.24973     1.62580     0.41889     0.00032     0.00000     0.02126     0.00095
     2.23750     0.60580    41.32000     0.67494     3.26738     1.63170     0.41561     0.00032     0.00000     0.02208     0.00098
     2.23750     0.59980    41.32000     0.66825     3.28532     1.63770     0.41226     0.00032     0.00000     0.02231     0.00100
     2.23750     0.59380    41.32000     0.66157     3.30327     1.64370     0.40889     0.00032     0.00000     0.02219     0.00103
     2.23750     0.58780    41.32000     0.65488     3.32121     1.64970     0.40550     0.00032     0.00000     0.02246     0.00102
     2.23750     0.58190    41.32000     0.64831     3.33886     1.65560     0.40215     0.00032     0.00000     0.02206     0.00104
     2.23750     0.57590    41.32000     0.64162     3.35680     1.66160     0.39873     0.00033     0.00000     0.02123     0.00103
     2.23750     0.56990    41.32000     0.63494     3.37474     1.66760     0.39529     0.00033     0.00000     0.02189     0.00104
     2.23750     0.56400    41.32000     0.62837     3.39239     1.67350     0.39189     0.00033     0.00000     0.02341     0.00110
     2.23750     0.55800    41.32000     0.62168     3.41033     1.67950     0.38841     0.00033     0.00000     0.02247     0.00107
     2.23750     0.55200    41.32000     0.61500     3.42828     1.68550     0.38492     0.00033     0.00000     0.02261     0.00108
     2.23750     1.04670    50.61000     1.71155     1.40340     1.19080     0.55021     0.00006     0.00000     0.00307     0.00009
     2.23750     1.03700    50.61000     1.69568     1.43746     1.20050     0.54732     0.00007     0.00000     0.00397     0.00011
     2.23750     1.02730    50.61000     1.67982     1.47153     1.21020     0.54440     0.00007     0.00000     0.00455     0.00011
     2.23750     1.01750    50.61000     1.66380     1.50594     1.22000     0.54141     0.00007     0.00000     0.00450     0.00011
     2.23750     1.00780    50.61000     1.64794     1.54001     1.22970     0.53840     0.00008     0.00000     0.00451     0.00011
     2.23750     0.99800    50.61000     1.63191     1.57442     1.23950     0.53533     0.00008     0.00000     0.00406     0.00011
     2.23750     0.98830    50.61000     1.61605     1.60849     1.24920     0.53225     0.00008     0.00000     0.00374     0.00010
     2.23750     0.97860    50.61000     1.60019     1.64255     1.25890     0.52913     0.00009     0.00000     0.00358     0.00010
     2.23750     0.96880    50.61000     1.58416     1.67696     1.26870     0.52594     0.00009     0.00000     0.00331     0.00010
     2.23750     0.95910    50.61000     1.56830     1.71103     1.27840     0.52274     0.00009     0.00000     0.00352     0.00010
     2.23750     0.94940    50.61000     1.55244     1.74509     1.28810     0.51950     0.00010     0.00000     0.00340     0.00010
     2.23750     0.93960    50.61000     1.53642     1.77951     1.29790     0.51619     0.00010     0.00000     0.00348     0.00010
     2.23750     0.92990    50.61000     1.52056     1.81357     1.30760     0.51287     0.00010     0.00000     0.00337     0.00010
     2.23750     0.92010    50.61000     1.50453     1.84799     1.31740     0.50947     0.00011     0.00000     0.00344     0.00010
     2.23750     0.91040    50.61000     1.48867     1.88205     1.32710     0.50607     0.00011     0.00000     0.00368     0.00011
     2.23750     0.90070    50.61000     1.47281     1.91611     1.33680     0.50262     0.00011     0.00000     0.00377     0.00011
     2.23750     0.88980    50.61000     1.45498     1.95439     1.34770     0.49870     0.00012     0.00000     0.00387     0.00014
     2.23750     0.88150    50.61000     1.44141     1.98354     1.35600     0.49568     0.00012     0.00000     0.00409     0.00015
     2.23750     0.87320    50.61000     1.42784     2.01269     1.36430     0.49263     0.00012     0.00000     0.00424     0.00016
     2.23750     0.86490    50.61000     1.41427     2.04183     1.37260     0.48955     0.00012     0.00000     0.00474     0.00016
     2.23750     0.85670    50.61000     1.40086     2.07063     1.38080     0.48648     0.00012     0.00000     0.00494     0.00016
     2.23750     0.84840    50.61000     1.38729     2.09978     1.38910     0.48334     0.00013     0.00000     0.00526     0.00017
     2.23750     0.84010    50.61000     1.37372     2.12892     1.39740     0.48016     0.00013     0.00000     0.00607     0.00019
     2.23750     0.83180    50.61000     1.36014     2.15807     1.40570     0.47696     0.00013     0.00000     0.00669     0.00020
     2.23750     0.82360    50.61000     1.34674     2.18687     1.41390     0.47377     0.00013     0.00000     0.00709     0.00021
     2.23750     0.81530    50.61000     1.33316     2.21601     1.42220     0.47050     0.00014     0.00000     0.00805     0.00023
     2.23750     0.80700    50.61000     1.31959     2.24516     1.43050     0.46720     0.00014     0.00000     0.00881     0.00025
     2.23750     0.79870    50.61000     1.30602     2.27431     1.43880     0.46387     0.00014     0.00000     0.00901     0.00025
     2.23750     0.79050    50.61000     1.29261     2.30311     1.44700     0.46056     0.00014     0.00000     0.00878     0.00025
     2.23750     0.78220    50.61000     1.27904     2.33225     1.45530     0.45716     0.00014     0.00000     0.00822     0.00024
     2.23750     0.77390    50.61000     1.26547     2.36140     1.46360     0.45374     0.00015     0.00000     0.00828     0.00024
     2.23750     0.76560    50.61000     1.25190     2.39055     1.47190     0.45029     0.00015     0.00000     0.00792     0.00024
     2.23750     0.75640    50.61000     1.23685     2.42286     1.48110     0.44642     0.00015     0.00000     0.00720     0.00026
     2.23750     0.74930    50.61000     1.22524     2.44779     1.48820     0.44341     0.00015     0.00000     0.00750     0.00027
     2.23750     0.74230    50.61000     1.21380     2.47237     1.49520     0.44042     0.00015     0.00000     0.00720     0.00026
     2.23750     0.73530    50.61000     1.20235     2.49695     1.50220     0.43741     0.00015     0.00000     0.00723     0.00026
     2.23750     0.72820    50.61000     1.19074     2.52189     1.50930     0.43433     0.00016     0.00000     0.00699     0.00026
     2.23750     0.72120    50.61000     1.17929     2.54647     1.51630     0.43127     0.00016     0.00000     0.00718     0.00026
     2.23750     0.71420    50.61000     1.16785     2.57105     1.52330     0.42819     0.00016     0.00000     0.00714     0.00027
     2.23750     0.70710    50.61000     1.15624     2.59598     1.53040     0.42504     0.00016     0.00000     0.00752     0.00027
     2.23750     0.70010    50.61000     1.14479     2.62057     1.53740     0.42191     0.00016     0.00000     0.00774     0.00029
     2.23750     0.69300    50.61000     1.13318     2.64550     1.54450     0.41871     0.00016     0.00000     0.00812     0.00030
     2.23750     0.68600    50.61000     1.12173     2.67008     1.55150     0.41554     0.00016     0.00000     0.00827     0.00030
     2.23750     0.67900    50.61000     1.11029     2.69466     1.55850     0.41234     0.00017     0.00000     0.00883     0.00031
     2.23750     0.67190    50.61000     1.09868     2.71960     1.56560     0.40908     0.00017     0.00000     0.00922     0.00033
     2.23750     0.66490    50.61000     1.08723     2.74418     1.57260     0.40584     0.00017     0.00000     0.00905     0.00033
     2.23750     0.65790    50.61000     1.07579     2.76876     1.57960     0.40257     0.00017     0.00000     0.01029     0.00035
     2.23750     0.65080    50.61000     1.06418     2.79369     1.58670     0.39923     0.00017     0.00000     0.01076     0.00035
     2.23750     0.64290    50.61000     1.05126     2.82144     1.59460     0.39549     0.00017     0.00000     0.01122     0.00046
     2.23750     0.63690    50.61000     1.04145     2.84251     1.60060     0.39263     0.00017     0.00000     0.01053     0.00044
     2.23750     0.63090    50.61000     1.03164     2.86358     1.60660     0.38976     0.00017     0.00000     0.01120     0.00046
     2.23750     0.62490    50.61000     1.02183     2.88465     1.61260     0.38686     0.00018     0.00000     0.01181     0.00046
     2.23750     0.61890    50.61000     1.01201     2.90572     1.61860     0.38395     0.00018     0.00000     0.01177     0.00047
     2.23750     0.61290    50.61000     1.00220     2.92679     1.62460     0.38102     0.00018     0.00000     0.01163     0.00048
     2.23750     0.60700    50.61000     0.99256     2.94751     1.63050     0.37813     0.00018     0.00000     0.01110     0.00047
     2.23750     0.60100    50.61000     0.98274     2.96858     1.63650     0.37517     0.00018     0.00000     0.01145     0.00048
     2.23750     0.59500    50.61000     0.97293     2.98965     1.64250     0.37219     0.00018     0.00000     0.01143     0.00050
     2.23750     0.58900    50.61000     0.96312     3.01072     1.64850     0.36920     0.00018     0.00000     0.01120     0.00049
     2.23750     0.58310    50.61000     0.95347     3.03144     1.65440     0.36623     0.00018     0.00000     0.01077     0.00047
     2.23750     0.57710    50.61000     0.94366     3.05251     1.66040     0.36321     0.00018     0.00000     0.01079     0.00049
     2.23750     0.57110    50.61000     0.93385     3.07358     1.66640     0.36016     0.00018     0.00000     0.01073     0.00051
     2.23750     0.56510    50.61000     0.92404     3.09465     1.67240     0.35710     0.00019     0.00000     0.01081     0.00050
     2.23750     0.55910    50.61000     0.91423     3.11572     1.67840     0.35402     0.00019     0.00000     0.01030     0.00049
     2.23750     0.55310    50.61000     0.90442     3.13679     1.68440     0.35092     0.00019     0.00000     0.01037     0.00049
     2.23750     0.54640    50.61000     0.89346     3.16032     1.69110     0.34745     0.00019     0.00000     0.01078     0.00054
     2.23750     0.54130    50.61000     0.88512     3.17823     1.69620     0.34479     0.00019     0.00000     0.01018     0.00051
     2.23750     0.53630    50.61000     0.87695     3.19579     1.70120     0.34217     0.00019     0.00000     0.01048     0.00051
     2.23750     0.53120    50.61000     0.86861     3.21370     1.70630     0.33948     0.00019     0.00000     0.01085     0.00054
     2.23750     0.52610    50.61000     0.86027     3.23161     1.71140     0.33679     0.00019     0.00000     0.01124     0.00055
     2.23750     0.52100    50.61000     0.85193     3.24952     1.71650     0.33408     0.00019     0.00000     0.01128     0.00055
     2.23750     0.51590    50.61000     0.84359     3.26743     1.72160     0.33136     0.00019     0.00000     0.01081     0.00054
     2.23750     0.51080    50.61000     0.83525     3.28534     1.72670     0.32862     0.00019     0.00000     0.01095     0.00056
     2.23750     0.50580    50.61000     0.82708     3.30289     1.73170     0.32593     0.00019     0.00000     0.01100     0.00056
     2.23750     0.50070    50.61000     0.81874     3.32080     1.73680     0.32318     0.00019     0.00000     0.01151     0.00060
     2.23750     0.49560    50.61000     0.81040     3.33871     1.74190     0.32041     0.00019     0.00000     0.01128     0.00059
     2.23750     0.49050    50.61000     0.80206     3.35662     1.74700     0.31763     0.00020     0.00000     0.01123     0.00059
     2.23750     0.48540    50.61000     0.79372     3.37453     1.75210     0.31483     0.00020     0.00000     0.01068     0.00060
     2.23750     0.48030    50.61000     0.78538     3.39244     1.75720     0.31203     0.00020     0.00000     0.01133     0.00061
     2.23750     0.47530    50.61000     0.77720     3.41000     1.76220     0.30927     0.00020     0.00000     0.01104     0.00060
     2.23750     0.47020    50.61000     0.76886     3.42791     1.76730     0.30644     0.00020     0.00000     0.01201     0.00062
     2.23750     0.46440    50.61000     0.75938     3.44828     1.77310     0.30321     0.00020     0.00000     0.01174     0.00063
     2.23750     0.46010    50.61000     0.75235     3.46338     1.77740     0.30080     0.00020     0.00000     0.01186     0.00063
     2.23750     0.45580    50.61000     0.74532     3.47848     1.78170     0.29839     0.00020     0.00000     0.01175     0.00064
     2.23750     0.45140    50.61000     0.73812     3.49393     1.78610     0.29591     0.00020     0.00000     0.01222     0.00065
     2.23750     0.44710    50.61000     0.73109     3.50903     1.79040     0.29348     0.00020     0.00000     0.01186     0.00066
     2.23750     0.44280    50.61000     0.72406     3.52413     1.79470     0.29104     0.00020     0.00000     0.01278     0.00066
     2.23750     0.43850    50.61000     0.71703     3.53923     1.79900     0.28859     0.00020     0.00000     0.01218     0.00067
     2.23750     0.43420    50.61000     0.71000     3.55433     1.80330     0.28614     0.00020     0.00000     0.01273     0.00068
     2.23750     0.42980    50.61000     0.70280     3.56979     1.80770     0.28362     0.00020     0.00000     0.01356     0.00072
     2.23750     0.42550    50.61000     0.69577     3.58489     1.81200     0.28114     0.00020     0.00000     0.01323     0.00073
     2.23750     0.42120    50.61000     0.68874     3.59999     1.81630     0.27866     0.00020     0.00000     0.01294     0.00073
     2.23750     0.41690    50.61000     0.68171     3.61509     1.82060     0.27617     0.00020     0.00000     0.01302     0.00074
     2.23750     0.41260    50.61000     0.67468     3.63019     1.82490     0.27368     0.00020     0.00000     0.01291     0.00073
     2.23750     0.40820    50.61000     0.66748     3.64564     1.82930     0.27111     0.00020     0.00000     0.01320     0.00075
     2.23750     0.40390    50.61000     0.66045     3.66074     1.83360     0.26860     0.00020     0.00000     0.01361     0.00075
     2.23750     0.39960    50.61000     0.65342     3.67584     1.83790     0.26608     0.00021     0.00000     0.01348     0.00076
     4.41250     3.76000    13.51000     0.91817     1.18663     0.65250     0.96055     0.00142     0.00000     0.00558     0.01450
     4.41250     3.72260    13.51000     0.90904     1.26594     0.68990     0.95900     0.00172     0.00000     0.08846     0.00633
     4.41250     3.68520    13.51000     0.89991     1.34526     0.72730     0.95735     0.00199     0.00000     0.23302     0.00607
     4.41250     3.64780    13.51000     0.89077     1.42458     0.76470     0.95559     0.00224     0.00000     0.44062     0.00962
     4.41250     3.61040    13.51000     0.88164     1.50389     0.80210     0.95371     0.00246     0.00000     0.46288     0.01015
     4.41250     3.57290    13.51000     0.87248     1.58342     0.83960     0.95172     0.00266     0.00000     0.35407     0.00813
     4.41250     3.53550    13.51000     0.86335     1.66274     0.87700     0.94962     0.00284     0.00000     0.27688     0.00654
     4.41250     3.49810    13.51000     0.85422     1.74205     0.91440     0.94740     0.00300     0.00000     0.24105     0.00578
     4.41250     3.46070    13.51000     0.84508     1.82137     0.95180     0.94506     0.00313     0.00000     0.23188     0.00562
     4.41250     3.41870    13.51000     0.83483     1.91044     0.99380     0.94228     0.00326     0.00000     0.22161     0.00594
     4.41250     3.38690    13.51000     0.82706     1.97788     1.02560     0.94008     0.00335     0.00000     0.23153     0.00609
     4.41250     3.35510    13.51000     0.81930     2.04532     1.05740     0.93778     0.00342     0.00000     0.25353     0.00647
     4.41250     3.32330    13.51000     0.81153     2.11276     1.08920     0.93539     0.00349     0.00000     0.28188     0.00704
     4.41250     3.29150    13.51000     0.80377     2.18020     1.12100     0.93290     0.00354     0.00000     0.36111     0.00861
     4.41250     3.25970    13.51000     0.79600     2.24764     1.15280     0.93032     0.00359     0.00000     0.41067     0.00961
     4.41250     3.22790    13.51000     0.78824     2.31508     1.18460     0.92763     0.00362     0.00000     0.39309     0.00937
     4.41250     3.19610    13.51000     0.78047     2.38251     1.21640     0.92485     0.00365     0.00000     0.32808     0.00809
     4.41250     3.16430    13.51000     0.77271     2.44995     1.24820     0.92197     0.00368     0.00000     0.30083     0.00751
     4.41250     3.13250    13.51000     0.76494     2.51739     1.28000     0.91898     0.00369     0.00000     0.28969     0.00727
     4.41250     3.10070    13.51000     0.75717     2.58483     1.31180     0.91589     0.00371     0.00000     0.28944     0.00731
     4.41250     3.06890    13.51000     0.74941     2.65227     1.34360     0.91270     0.00371     0.00000     0.31022     0.00775
     4.41250     3.03710    13.51000     0.74164     2.71971     1.37540     0.90940     0.00371     0.00000     0.33467     0.00823
     4.41250     3.00530    13.51000     0.73388     2.78715     1.40720     0.90599     0.00371     0.00000     0.35314     0.00864
     4.41250     2.97350    13.51000     0.72611     2.85459     1.43900     0.90246     0.00370     0.00000     0.38270     0.00923
     4.41250     2.94170    13.51000     0.71835     2.92203     1.47080     0.89883     0.00369     0.00000     0.36445     0.00889
     4.41250     2.90590    13.51000     0.70961     2.99795     1.50660     0.89460     0.00367     0.00000     0.32431     0.00821
     4.41250     2.87890    13.51000     0.70301     3.05521     1.53360     0.89132     0.00366     0.00000     0.30089     0.00776
     4.41250     2.85190    13.51000     0.69642     3.11247     1.56060     0.88795     0.00364     0.00000     0.30159     0.00776
     4.41250     2.82480    13.51000     0.68980     3.16995     1.58770     0.88449     0.00362     0.00000     0.28469     0.00742
     4.41250     2.79780    13.51000     0.68321     3.22721     1.61470     0.88095     0.00360     0.00000     0.28391     0.00740
     4.41250     2.77080    13.51000     0.67661     3.28447     1.64170     0.87733     0.00358     0.00000     0.27162     0.00718
     4.41250     2.74370    13.51000     0.67000     3.34194     1.66880     0.87360     0.00356     0.00000     0.27057     0.00717
     4.41250     2.71670    13.51000     0.66340     3.39920     1.69580     0.86980     0.00354     0.00000     0.27275     0.00719
     4.41250     2.68970    13.51000     0.65681     3.45646     1.72280     0.86591     0.00351     0.00000     0.26862     0.00714
     4.41250     2.66270    13.51000     0.65022     3.51372     1.74980     0.86193     0.00349     0.00000     0.27984     0.00737
     4.41250     2.63560    13.51000     0.64360     3.57119     1.77690     0.85785     0.00346     0.00000     0.27817     0.00738
     4.41250     2.60860    13.51000     0.63701     3.62845     1.80390     0.85368     0.00343     0.00000     0.27458     0.00734
     4.41250     2.58160    13.51000     0.63041     3.68571     1.83090     0.84943     0.00341     0.00000     0.27257     0.00732
     4.41250     2.55450    13.51000     0.62380     3.74318     1.85800     0.84506     0.00338     0.00000     0.26511     0.00719
     4.41250     2.52750    13.51000     0.61720     3.80044     1.88500     0.84062     0.00335     0.00000     0.26145     0.00712
     4.41250     2.50050    13.51000     0.61061     3.85770     1.91200     0.83609     0.00332     0.00000     0.26342     0.00713
     4.41250     2.47000    13.51000     0.60316     3.92238     1.94250     0.83085     0.00329     0.00000     0.24035     0.00688
     4.41250     2.44710    13.51000     0.59757     3.97095     1.96540     0.82683     0.00326     0.00000     0.24635     0.00699
     4.41250     2.42410    13.51000     0.59195     4.01973     1.98840     0.82273     0.00324     0.00000     0.24926     0.00705
     4.41250     2.40110    13.51000     0.58634     4.06850     2.01140     0.81855     0.00321     0.00000     0.24017     0.00685
     4.41250     2.37810    13.51000     0.58072     4.11728     2.03440     0.81431     0.00319     0.00000     0.24593     0.00696
     4.41250     2.35510    13.51000     0.57510     4.16606     2.05740     0.80999     0.00316     0.00000     0.23457     0.00675
     4.41250     2.33220    13.51000     0.56951     4.21462     2.08030     0.80562     0.00314     0.00000     0.23852     0.00683
     4.41250     2.30920    13.51000     0.56389     4.26340     2.10330     0.80116     0.00311     0.00000     0.22764     0.00659
     4.41250     2.28620    13.51000     0.55828     4.31218     2.12630     0.79663     0.00309     0.00000     0.23000     0.00667
     4.41250     2.26320    13.51000     0.55266     4.36095     2.14930     0.79202     0.00306     0.00000     0.23274     0.00676
     4.41250     2.24030    13.51000     0.54707     4.40952     2.17220     0.78736     0.00303     0.00000     0.22672     0.00666
     4.41250     2.21730    13.51000     0.54145     4.45830     2.19520     0.78261     0.00301     0.00000     0.22501     0.00672
     4.41250     2.19430    13.51000     0.53584     4.50707     2.21820     0.77778     0.00298     0.00000     0.21644     0.00653
     4.41250     2.17130    13.51000     0.53022     4.55585     2.24120     0.77287     0.00296     0.00000     0.21731     0.00659
     4.41250     2.14830    13.51000     0.52460     4.60463     2.26420     0.76790     0.00293     0.00000     0.21570     0.00654
     4.41250     2.12540    13.51000     0.51901     4.65319     2.28710     0.76286     0.00291     0.00000     0.21999     0.00659
     4.41250     2.09960    13.51000     0.51271     4.70791     2.31290     0.75711     0.00288     0.00000     0.20941     0.00661
     4.41250     2.08010    13.51000     0.50795     4.74926     2.33240     0.75269     0.00286     0.00000     0.20518     0.00651
     4.41250     2.06050    13.51000     0.50316     4.79083     2.35200     0.74820     0.00284     0.00000     0.21448     0.00666
     4.41250     2.04100    13.51000     0.49840     4.83218     2.37150     0.74367     0.00282     0.00000     0.21221     0.00657
     4.41250     2.02150    13.51000     0.49364     4.87354     2.39100     0.73909     0.00280     0.00000     0.20930     0.00657
     4.41250     2.00190    13.51000     0.48885     4.91510     2.41060     0.73443     0.00278     0.00000     0.20325     0.00647
     4.41250     1.98240    13.51000     0.48409     4.95646     2.43010     0.72974     0.00276     0.00000     0.19454     0.00630
     4.41250     1.96290    13.51000     0.47933     4.99781     2.44960     0.72500     0.00274     0.00000     0.19949     0.00640
     4.41250     1.94330    13.51000     0.47454     5.03938     2.46920     0.72017     0.00272     0.00000     0.20106     0.00641
     4.41250     1.92380    13.51000     0.46978     5.08073     2.48870     0.71531     0.00270     0.00000     0.19835     0.00641
     4.41250     1.90430    13.51000     0.46502     5.12209     2.50820     0.71040     0.00268     0.00000     0.20050     0.00649
     4.41250     1.88470    13.51000     0.46023     5.16365     2.52780     0.70541     0.00266     0.00000     0.19506     0.00646
     4.41250     1.86520    13.51000     0.45547     5.20501     2.54730     0.70038     0.00264     0.00000     0.18475     0.00625
     4.41250     1.84570    13.51000     0.45071     5.24636     2.56680     0.69530     0.00262     0.00000     0.19178     0.00641
     4.41250     1.82610    13.51000     0.44592     5.28793     2.58640     0.69014     0.00260     0.00000     0.19157     0.00639
     4.41250     1.80660    13.51000     0.44116     5.32928     2.60590     0.68495     0.00258     0.00000     0.19270     0.00639
     4.41250     1.78450    13.51000     0.43577     5.37615     2.62800     0.67900     0.00256     0.00000     0.18636     0.00594
     4.41250     1.76790    13.51000     0.43171     5.41136     2.64460     0.67448     0.00254     0.00000     0.18307     0.00586
     4.41250     1.75130    13.51000     0.42766     5.44656     2.66120     0.66992     0.00253     0.00000     0.18479     0.00588
     4.41250     1.73470    13.51000     0.42360     5.48176     2.67780     0.66532     0.00251     0.00000     0.18683     0.00590
     4.41250     1.71810    13.51000     0.41955     5.51697     2.69440     0.66068     0.00250     0.00000     0.17659     0.00571
     4.41250     1.70150    13.51000     0.41550     5.55217     2.71100     0.65600     0.00248     0.00000     0.17997     0.00580
     4.41250     1.68490    13.51000     0.41144     5.58738     2.72760     0.65128     0.00247     0.00000     0.18187     0.00583
     4.41250     1.66830    13.51000     0.40739     5.62258     2.74420     0.64652     0.00245     0.00000     0.17902     0.00578
     4.41250     1.65170    13.51000     0.40334     5.65779     2.76080     0.64172     0.00244     0.00000     0.18445     0.00590
     4.41250     1.63510    13.51000     0.39928     5.69299     2.77740     0.63688     0.00242     0.00000     0.18631     0.00600
     4.41250     1.61850    13.51000     0.39523     5.72819     2.79400     0.63200     0.00241     0.00000     0.17701     0.00585
     4.41250     1.60190    13.51000     0.39118     5.76340     2.81060     0.62708     0.00239     0.00000     0.17659     0.00592
     4.41250     1.58530    13.51000     0.38712     5.79860     2.82720     0.62212     0.00238     0.00000     0.17744     0.00593
     4.41250     1.56870    13.51000     0.38307     5.83381     2.84380     0.61712     0.00237     0.00000     0.17403     0.00590
     4.41250     1.55210    13.51000     0.37901     5.86901     2.86040     0.61208     0.00235     0.00000     0.17962     0.00600
     4.41250     1.53550    13.51000     0.37496     5.90422     2.87700     0.60700     0.00234     0.00000     0.16487     0.00567
     4.41250     1.51690    13.51000     0.37042     5.94366     2.89560     0.60126     0.00232     0.00000     0.17035     0.00610
     4.41250     1.50280    13.51000     0.36698     5.97356     2.90970     0.59687     0.00231     0.00000     0.16394     0.00600
     4.41250     1.48870    13.51000     0.36353     6.00347     2.92380     0.59246     0.00230     0.00000     0.16536     0.00603
     4.41250     1.47460    13.51000     0.36009     6.03337     2.93790     0.58802     0.00229     0.00000     0.17458     0.00618
     4.41250     1.46050    13.51000     0.35665     6.06327     2.95200     0.58355     0.00228     0.00000     0.16605     0.00604
     4.41250     1.44640    13.51000     0.35320     6.09317     2.96610     0.57905     0.00226     0.00000     0.16329     0.00598
     4.41250     1.43230    13.51000     0.34976     6.12308     2.98020     0.57452     0.00225     0.00000     0.16490     0.00609
     4.41250     1.41820    13.51000     0.34632     6.15298     2.99430     0.56997     0.00224     0.00000     0.16907     0.00610
     4.41250     1.40400    13.51000     0.34285     6.18309     3.00850     0.56535     0.00223     0.00000     0.17354     0.00625
     4.41250     1.38990    13.51000     0.33941     6.21300     3.02260     0.56074     0.00222     0.00000     0.17136     0.00627
     4.41250     1.37580    13.51000     0.33596     6.24290     3.03670     0.55610     0.00221     0.00000     0.16414     0.00613
     4.41250     1.36170    13.51000     0.33252     6.27280     3.05080     0.55144     0.00220     0.00000     0.16328     0.00623
     4.41250     1.34760    13.51000     0.32908     6.30270     3.06490     0.54674     0.00219     0.00000     0.16035     0.00619
     4.41250     1.33350    13.51000     0.32563     6.33261     3.07900     0.54202     0.00218     0.00000     0.16155     0.00629
     4.41250     1.31940    13.51000     0.32219     6.36251     3.09310     0.53727     0.00217     0.00000     0.16755     0.00636
     4.41250     1.30530    13.51000     0.31875     6.39241     3.10720     0.53250     0.00216     0.00000     0.16307     0.00624
     4.41250     3.89930    11.21000     0.65652     1.18687     0.51320     0.97372     0.00309     0.00000     0.02121     0.02686
     4.41250     3.86050    11.21000     0.64999     1.26622     0.55200     0.97249     0.00372     0.00000     0.29783     0.01821
     4.41250     3.82170    11.21000     0.64346     1.34556     0.59080     0.97115     0.00428     0.00000     0.77018     0.01952
     4.41250     3.78290    11.21000     0.63693     1.42490     0.62960     0.96970     0.00477     0.00000     1.43109     0.03147
     4.41250     3.74410    11.21000     0.63039     1.50425     0.66840     0.96814     0.00519     0.00000     1.44189     0.03206
     4.41250     3.70530    11.21000     0.62386     1.58359     0.70720     0.96646     0.00556     0.00000     1.11094     0.02564
     4.41250     3.66650    11.21000     0.61733     1.66293     0.74600     0.96467     0.00587     0.00000     0.81534     0.01974
     4.41250     3.62770    11.21000     0.61080     1.74227     0.78480     0.96275     0.00614     0.00000     0.68872     0.01717
     4.41250     3.58890    11.21000     0.60426     1.82162     0.82360     0.96072     0.00635     0.00000     0.61400     0.01575
     4.41250     3.54520    11.21000     0.59690     1.91098     0.86730     0.95828     0.00655     0.00000     0.57767     0.01397
     4.41250     3.51230    11.21000     0.59137     1.97826     0.90020     0.95634     0.00667     0.00000     0.61837     0.01471
     4.41250     3.47930    11.21000     0.58581     2.04574     0.93320     0.95429     0.00676     0.00000     0.65049     0.01523
     4.41250     3.44630    11.21000     0.58025     2.11322     0.96620     0.95215     0.00683     0.00000     0.73316     0.01676
     4.41250     3.41330    11.21000     0.57470     2.18070     0.99920     0.94991     0.00688     0.00000     0.90441     0.02016
     4.41250     3.38030    11.21000     0.56914     2.24819     1.03220     0.94758     0.00692     0.00000     1.01845     0.02254
     4.41250     3.34740    11.21000     0.56360     2.31546     1.06510     0.94515     0.00694     0.00000     0.92263     0.02070
     4.41250     3.31440    11.21000     0.55804     2.38295     1.09810     0.94261     0.00694     0.00000     0.81298     0.01852
     4.41250     3.28140    11.21000     0.55249     2.45043     1.13110     0.93997     0.00694     0.00000     0.73298     0.01694
     4.41250     3.24840    11.21000     0.54693     2.51791     1.16410     0.93722     0.00692     0.00000     0.69286     0.01616
     4.41250     3.21550    11.21000     0.54139     2.58519     1.19700     0.93437     0.00689     0.00000     0.69584     0.01627
     4.41250     3.18250    11.21000     0.53584     2.65267     1.23000     0.93140     0.00685     0.00000     0.71678     0.01675
     4.41250     3.14950    11.21000     0.53028     2.72015     1.26300     0.92833     0.00681     0.00000     0.75851     0.01755
     4.41250     3.11650    11.21000     0.52472     2.78763     1.29600     0.92514     0.00676     0.00000     0.80739     0.01854
     4.41250     3.08350    11.21000     0.51917     2.85512     1.32900     0.92183     0.00670     0.00000     0.84861     0.01936
     4.41250     3.05060    11.21000     0.51363     2.92239     1.36190     0.91842     0.00664     0.00000     0.78691     0.01816
     4.41250     3.01350    11.20000     0.50648     2.99916     1.39900     0.91447     0.00658     0.00000     0.70506     0.01773
     4.41250     2.98550    11.20000     0.50177     3.05641     1.42700     0.91136     0.00652     0.00000     0.64658     0.01658
     4.41250     2.95750    11.20000     0.49707     3.11366     1.45500     0.90817     0.00646     0.00000     0.61698     0.01604
     4.41250     2.92940    11.20000     0.49235     3.17111     1.48310     0.90487     0.00640     0.00000     0.59701     0.01557
     4.41250     2.90140    11.20000     0.48764     3.22836     1.51110     0.90150     0.00633     0.00000     0.57831     0.01521
     4.41250     2.87340    11.20000     0.48293     3.28561     1.53910     0.89803     0.00627     0.00000     0.58457     0.01537
     4.41250     2.84530    11.20000     0.47821     3.34307     1.56720     0.89447     0.00620     0.00000     0.56386     0.01494
     4.41250     2.81730    11.20000     0.47350     3.40032     1.59520     0.89082     0.00613     0.00000     0.57547     0.01515
     4.41250     2.78930    11.20000     0.46880     3.45757     1.62320     0.88708     0.00606     0.00000     0.55613     0.01480
     4.41250     2.76130    11.20000     0.46409     3.51481     1.65120     0.88325     0.00599     0.00000     0.58476     0.01539
     4.41250     2.73320    11.20000     0.45937     3.57227     1.67930     0.87930     0.00592     0.00000     0.56593     0.01510
     4.41250     2.70520    11.20000     0.45466     3.62952     1.70730     0.87527     0.00586     0.00000     0.56052     0.01509
     4.41250     2.67720    11.20000     0.44996     3.68677     1.73530     0.87115     0.00579     0.00000     0.52640     0.01444
     4.41250     2.64910    11.20000     0.44524     3.74422     1.76340     0.86691     0.00572     0.00000     0.53593     0.01465
     4.41250     2.62110    11.20000     0.44053     3.80147     1.79140     0.86259     0.00565     0.00000     0.51849     0.01429
     4.41250     2.59310    11.20000     0.43582     3.85872     1.81940     0.85817     0.00558     0.00000     0.50642     0.01405
     4.41250     2.56150    11.21000     0.43128     3.92256     1.85100     0.85303     0.00549     0.00000     0.49212     0.01234
     4.41250     2.53770    11.21000     0.42727     3.97123     1.87480     0.84910     0.00543     0.00000     0.46773     0.01185
     4.41250     2.51390    11.21000     0.42326     4.01990     1.89860     0.84509     0.00537     0.00000     0.47658     0.01201
     4.41250     2.49000    11.21000     0.41924     4.06877     1.92250     0.84099     0.00532     0.00000     0.46643     0.01179
     4.41250     2.46620    11.21000     0.41523     4.11744     1.94630     0.83683     0.00526     0.00000     0.45746     0.01162
     4.41250     2.44240    11.21000     0.41123     4.16611     1.97010     0.83259     0.00520     0.00000     0.45604     0.01158
     4.41250     2.41850    11.21000     0.40720     4.21498     1.99400     0.82826     0.00515     0.00000     0.44142     0.01129
     4.41250     2.39470    11.21000     0.40320     4.26365     2.01780     0.82387     0.00509     0.00000     0.45078     0.01148
     4.41250     2.37090    11.21000     0.39919     4.31232     2.04160     0.81941     0.00504     0.00000     0.44103     0.01130
     4.41250     2.34710    11.21000     0.39518     4.36099     2.06540     0.81487     0.00499     0.00000     0.44022     0.01132
     4.41250     2.32320    11.21000     0.39116     4.40987     2.08930     0.81022     0.00493     0.00000     0.41456     0.01086
     4.41250     2.29940    11.21000     0.38715     4.45853     2.11310     0.80552     0.00488     0.00000     0.41462     0.01097
     4.41250     2.27560    11.21000     0.38314     4.50720     2.13690     0.80075     0.00483     0.00000     0.40605     0.01079
     4.41250     2.25170    11.21000     0.37912     4.55608     2.16080     0.79587     0.00477     0.00000     0.39506     0.01058
     4.41250     2.22790    11.21000     0.37511     4.60475     2.18460     0.79093     0.00472     0.00000     0.41197     0.01093
     4.41250     2.20410    11.21000     0.37110     4.65341     2.20840     0.78591     0.00467     0.00000     0.40196     0.01069
     4.41250     2.17730    11.21000     0.36659     4.70822     2.23520     0.78016     0.00462     0.00000     0.39193     0.01262
     4.41250     2.15710    11.21000     0.36319     4.74953     2.25540     0.77576     0.00458     0.00000     0.38319     0.01246
     4.41250     2.13680    11.21000     0.35977     4.79104     2.27570     0.77128     0.00453     0.00000     0.38707     0.01249
     4.41250     2.11650    11.21000     0.35635     4.83255     2.29600     0.76674     0.00449     0.00000     0.38283     0.01238
     4.41250     2.09630    11.21000     0.35295     4.87386     2.31620     0.76217     0.00445     0.00000     0.38211     0.01233
     4.41250     2.07600    11.21000     0.34954     4.91537     2.33650     0.75751     0.00441     0.00000     0.37633     0.01230
     4.41250     2.05580    11.21000     0.34613     4.95668     2.35670     0.75282     0.00437     0.00000     0.36709     0.01205
     4.41250     2.03550    11.21000     0.34272     4.99819     2.37700     0.74804     0.00433     0.00000     0.35202     0.01173
     4.41250     2.01530    11.21000     0.33932     5.03949     2.39720     0.74323     0.00430     0.00000     0.37345     0.01221
     4.41250     1.99500    11.21000     0.33590     5.08101     2.41750     0.73833     0.00426     0.00000     0.36010     0.01205
     4.41250     1.97480    11.21000     0.33250     5.12231     2.43770     0.73340     0.00422     0.00000     0.34802     0.01190
     4.41250     1.95450    11.21000     0.32908     5.16383     2.45800     0.72838     0.00418     0.00000     0.34079     0.01184
     4.41250     1.93430    11.21000     0.32568     5.20513     2.47820     0.72332     0.00414     0.00000     0.35566     0.01218
     4.41250     1.91400    11.21000     0.32226     5.24664     2.49850     0.71819     0.00411     0.00000     0.34130     0.01198
     4.41250     1.89370    11.21000     0.31884     5.28816     2.51880     0.71299     0.00407     0.00000     0.33992     0.01196
     4.41250     1.87350    11.21000     0.31544     5.32946     2.53900     0.70775     0.00404     0.00000     0.35556     0.01225
     4.41250     1.85070    11.21000     0.31160     5.37609     2.56180     0.70177     0.00400     0.00000     0.33440     0.01056
     4.41250     1.83350    11.21000     0.30871     5.41126     2.57900     0.69721     0.00397     0.00000     0.32467     0.01031
     4.41250     1.81630    11.21000     0.30581     5.44643     2.59620     0.69261     0.00394     0.00000     0.33267     0.01046
     4.41250     1.79910    11.21000     0.30291     5.48161     2.61340     0.68796     0.00391     0.00000     0.32054     0.01014
     4.41250     1.78190    11.21000     0.30002     5.51678     2.63060     0.68327     0.00388     0.00000     0.32148     0.01019
     4.41250     1.76460    11.21000     0.29711     5.55216     2.64790     0.67850     0.00385     0.00000     0.31219     0.01007
     4.41250     1.74740    11.21000     0.29421     5.58733     2.66510     0.67372     0.00383     0.00000     0.31234     0.01007
     4.41250     1.73020    11.21000     0.29131     5.62250     2.68230     0.66890     0.00380     0.00000     0.31754     0.01015
     4.41250     1.71300    11.21000     0.28842     5.65767     2.69950     0.66403     0.00377     0.00000     0.31628     0.01017
     4.41250     1.69580    11.21000     0.28552     5.69285     2.71670     0.65912     0.00374     0.00000     0.31887     0.01027
     4.41250     1.67860    11.21000     0.28263     5.72802     2.73390     0.65416     0.00372     0.00000     0.29970     0.00998
     4.41250     1.66130    11.21000     0.27971     5.76339     2.75120     0.64914     0.00369     0.00000     0.30263     0.01016
     4.41250     1.64410    11.21000     0.27682     5.79857     2.76840     0.64409     0.00366     0.00000     0.29298     0.00997
     4.41250     1.62690    11.21000     0.27392     5.83374     2.78560     0.63901     0.00364     0.00000     0.29571     0.01015
     4.41250     1.60970    11.21000     0.27102     5.86891     2.80280     0.63388     0.00361     0.00000     0.30131     0.01018
     4.41250     1.59250    11.21000     0.26813     5.90408     2.82000     0.62871     0.00359     0.00000     0.29976     0.01017
     4.41250     1.57300    11.21000     0.26485     5.94396     2.83950     0.62279     0.00356     0.00000     0.29348     0.01032
     4.41250     1.55840    11.21000     0.26239     5.97382     2.85410     0.61833     0.00354     0.00000     0.28845     0.01024
     4.41250     1.54380    11.21000     0.25993     6.00367     2.86870     0.61383     0.00352     0.00000     0.29514     0.01035
     4.41250     1.52910    11.21000     0.25745     6.03373     2.88340     0.60927     0.00350     0.00000     0.28735     0.01016
     4.41250     1.51450    11.21000     0.25500     6.06359     2.89800     0.60471     0.00348     0.00000     0.28132     0.01006
     4.41250     1.49990    11.21000     0.25254     6.09344     2.91260     0.60012     0.00346     0.00000     0.27944     0.01004
     4.41250     1.48520    11.21000     0.25006     6.12350     2.92730     0.59547     0.00344     0.00000     0.28082     0.01008
     4.41250     1.47060    11.21000     0.24760     6.15336     2.94190     0.59082     0.00342     0.00000     0.27552     0.01000
     4.41250     1.45600    11.21000     0.24515     6.18322     2.95650     0.58614     0.00340     0.00000     0.28579     0.01023
     4.41250     1.44140    11.21000     0.24269     6.21307     2.97110     0.58143     0.00338     0.00000     0.28130     0.01023
     4.41250     1.42670    11.21000     0.24021     6.24313     2.98580     0.57665     0.00336     0.00000     0.28759     0.01045
     4.41250     1.41210    11.21000     0.23775     6.27299     3.00040     0.57188     0.00334     0.00000     0.27278     0.01029
     4.41250     1.39750    11.21000     0.23530     6.30284     3.01500     0.56708     0.00332     0.00000     0.27418     0.01038
     4.41250     1.38280    11.21000     0.23282     6.33290     3.02970     0.56221     0.00330     0.00000     0.27677     0.01054
     4.41250     1.36820    11.21000     0.23036     6.36276     3.04430     0.55735     0.00328     0.00000     0.28056     0.01066
     4.41250     1.35360    11.21000     0.22791     6.39262     3.05890     0.55246     0.00327     0.00000     0.27440     0.01046
     4.41250     1.33710    11.21000     0.22513     6.42636     3.07540     0.54689     0.00325     0.00000     0.27461     0.00953
     4.41250     1.32460    11.21000     0.22302     6.45192     3.08790     0.54265     0.00323     0.00000     0.26900     0.00943
     4.41250     1.31220    11.21000     0.22093     6.47727     3.10030     0.53842     0.00322     0.00000     0.26779     0.00936
     4.41250     1.29980    11.21000     0.21885     6.50263     3.11270     0.53417     0.00320     0.00000     0.27872     0.00955
     4.41250     1.28730    11.21000     0.21674     6.52819     3.12520     0.52987     0.00319     0.00000     0.26235     0.00928
     4.41250     1.27490    11.21000     0.21465     6.55355     3.13760     0.52557     0.00317     0.00000     0.26122     0.00927
     4.41250     1.26250    11.21000     0.21257     6.57891     3.15000     0.52126     0.00316     0.00000     0.25605     0.00921
     4.41250     1.25000    11.21000     0.21046     6.60447     3.16250     0.51689     0.00314     0.00000     0.26338     0.00940
     4.41250     1.23760    11.21000     0.20837     6.62983     3.17490     0.51254     0.00313     0.00000     0.26301     0.00944
     4.41250     1.22510    11.21000     0.20627     6.65539     3.18740     0.50813     0.00311     0.00000     0.26582     0.00959
     4.41250     1.21270    11.21000     0.20418     6.68074     3.19980     0.50373     0.00310     0.00000     0.26497     0.00961
     4.41250     1.20030    11.21000     0.20209     6.70610     3.21220     0.49932     0.00309     0.00000     0.25328     0.00956
     4.41250     1.18780    11.21000     0.19999     6.73166     3.22470     0.49484     0.00307     0.00000     0.25156     0.00961
     4.41250     1.17540    11.21000     0.19790     6.75702     3.23710     0.49039     0.00306     0.00000     0.25539     0.00975
     4.41250     1.16300    11.21000     0.19581     6.78238     3.24950     0.48591     0.00304     0.00000     0.25969     0.00984
     4.41250     1.15050    11.21000     0.19371     6.80794     3.26200     0.48138     0.00303     0.00000     0.26473     0.01005
     4.41250     1.13650    11.21000     0.19135     6.83657     3.27600     0.47628     0.00302     0.00000     0.25325     0.01002
     4.41250     1.12590    11.21000     0.18957     6.85824     3.28660     0.47240     0.00300     0.00000     0.25316     0.01002
     4.41250     1.11530    11.21000     0.18778     6.87992     3.29720     0.46851     0.00299     0.00000     0.25450     0.01001
     4.41250     1.10480    11.21000     0.18601     6.90139     3.30770     0.46463     0.00298     0.00000     0.24979     0.00982
     4.41250     1.09420    11.21000     0.18423     6.92307     3.31830     0.46071     0.00297     0.00000     0.24548     0.00983
     4.41250     1.08360    11.21000     0.18245     6.94474     3.32890     0.45678     0.00296     0.00000     0.25425     0.01018
     4.41250     1.07310    11.21000     0.18068     6.96621     3.33940     0.45287     0.00295     0.00000     0.24935     0.01005
     4.41250     1.06250    11.21000     0.17889     6.98789     3.35000     0.44890     0.00294     0.00000     0.24800     0.01005
     4.41250     1.05190    11.21000     0.17711     7.00957     3.36060     0.44492     0.00293     0.00000     0.25347     0.01025
     4.41250     1.04130    11.21000     0.17532     7.03124     3.37120     0.44093     0.00292     0.00000     0.25064     0.01032
     4.41250     1.03080    11.21000     0.17356     7.05271     3.38170     0.43697     0.00291     0.00000     0.24743     0.01031
     4.41250     1.02020    11.21000     0.17177     7.07439     3.39230     0.43295     0.00290     0.00000     0.23963     0.01041
     4.41250     1.00960    11.21000     0.16999     7.09607     3.40290     0.42892     0.00289     0.00000     0.24588     0.01064
     4.41250     0.99910    11.21000     0.16822     7.11754     3.41340     0.42491     0.00288     0.00000     0.23522     0.01052
     4.41250     0.98850    11.21000     0.16643     7.13921     3.42400     0.42085     0.00287     0.00000     0.23511     0.01051
     4.41250     0.97790    11.21000     0.16465     7.16089     3.43460     0.41678     0.00286     0.00000     0.24238     0.01072
     4.41250     0.96600    11.21000     0.16265     7.18522     3.44650     0.41219     0.00284     0.00000     0.24339     0.01250
     4.41250     0.95700    11.21000     0.16113     7.20363     3.45550     0.40871     0.00284     0.00000     0.24030     0.01270
     4.41250     0.94800    11.21000     0.15961     7.22203     3.46450     0.40522     0.00283     0.00000     0.24407     0.01262
     4.41250     0.93900    11.21000     0.15810     7.24044     3.47350     0.40173     0.00282     0.00000     0.24410     0.01251
     4.41250     0.93010    11.21000     0.15660     7.25864     3.48240     0.39826     0.00281     0.00000     0.24784     0.01257
     4.41250     0.92110    11.21000     0.15509     7.27704     3.49140     0.39474     0.00280     0.00000     0.24470     0.01277
     4.41250     0.91210    11.21000     0.15357     7.29545     3.50040     0.39121     0.00279     0.00000     0.24863     0.01279
     4.41250     0.90310    11.21000     0.15205     7.31385     3.50940     0.38768     0.00279     0.00000     0.23487     0.01271
     4.41250     0.89410    11.21000     0.15054     7.33225     3.51840     0.38413     0.00278     0.00000     0.24008     0.01301
     4.41250     0.88510    11.21000     0.14902     7.35066     3.52740     0.38058     0.00277     0.00000     0.23429     0.01310
     4.41250     0.87610    11.21000     0.14751     7.36906     3.53640     0.37702     0.00276     0.00000     0.24331     0.01337
     4.41250     0.86710    11.21000     0.14599     7.38747     3.54540     0.37345     0.00275     0.00000     0.23700     0.01349
     4.41250     0.85820    11.21000     0.14449     7.40567     3.55430     0.36991     0.00275     0.00000     0.23288     0.01362
     4.41250     0.84920    11.21000     0.14298     7.42407     3.56330     0.36632     0.00274     0.00000     0.23187     0.01391
     4.41250     0.84020    11.21000     0.14146     7.44247     3.57230     0.36273     0.00273     0.00000     0.24376     0.01424
     4.41250     0.83120    11.21000     0.13995     7.46088     3.58130     0.35912     0.00272     0.00000     0.24418     0.01452
     4.41250     0.82120    11.21000     0.13827     7.48133     3.59130     0.35510     0.00271     0.00000     0.20580     0.02721
     4.41250     0.82120    11.21000     0.13827     7.48133     3.59130     0.35510     0.00271     0.00000     0.25667     0.05669
     4.41250     0.81360    11.21000     0.13699     7.49687     3.59890     0.35205     0.00271     0.00000     0.22857     0.02732
     4.41250     0.81360    11.21000     0.13699     7.49687     3.59890     0.35205     0.00271     0.00000     0.23269     0.05930
     4.41250     0.80590    11.21000     0.13569     7.51262     3.60660     0.34894     0.00270     0.00000     0.24279     0.02732
     4.41250     0.80590    11.21000     0.13569     7.51262     3.60660     0.34894     0.00270     0.00000     0.24568     0.05584
     4.41250     0.79830    11.21000     0.13441     7.52816     3.61420     0.34587     0.00269     0.00000     0.22584     0.02779
     4.41250     0.79830    11.21000     0.13441     7.52816     3.61420     0.34587     0.00269     0.00000     0.25814     0.05875
     4.41250     0.79060    11.21000     0.13311     7.54390     3.62190     0.34275     0.00269     0.00000     0.24700     0.02828
     4.41250     0.79060    11.21000     0.13311     7.54390     3.62190     0.34275     0.00269     0.00000     0.25237     0.05848
     4.41250     0.78300    11.21000     0.13183     7.55944     3.62950     0.33967     0.00268     0.00000     0.22049     0.02680
     4.41250     0.78300    11.21000     0.13183     7.55944     3.62950     0.33967     0.00268     0.00000     0.24723     0.05890
     4.41250     0.77540    11.21000     0.13055     7.57499     3.63710     0.33658     0.00268     0.00000     0.19910     0.02817
     4.41250     0.77540    11.21000     0.13055     7.57499     3.63710     0.33658     0.00268     0.00000     0.25202     0.06159
     4.41250     0.76770    11.21000     0.12926     7.59073     3.64480     0.33345     0.00267     0.00000     0.22656     0.02812
     4.41250     0.76770    11.21000     0.12926     7.59073     3.64480     0.33345     0.00267     0.00000     0.23526     0.05801
     4.41250     0.76010    11.21000     0.12798     7.60627     3.65240     0.33035     0.00266     0.00000     0.22611     0.02850
     4.41250     0.76010    11.21000     0.12798     7.60627     3.65240     0.33035     0.00266     0.00000     0.23836     0.05771
     4.41250     0.75240    11.21000     0.12668     7.62202     3.66010     0.32720     0.00266     0.00000     0.23534     0.02962
     4.41250     0.75240    11.21000     0.12668     7.62202     3.66010     0.32720     0.00266     0.00000     0.24001     0.06165
     4.41250     0.74480    11.21000     0.12540     7.63756     3.66770     0.32409     0.00265     0.00000     0.23105     0.02958
     4.41250     0.74480    11.21000     0.12540     7.63756     3.66770     0.32409     0.00265     0.00000     0.23894     0.06577
     4.41250     0.73720    11.21000     0.12412     7.65310     3.67530     0.32097     0.00264     0.00000     0.21598     0.03138
     4.41250     0.73720    11.21000     0.12412     7.65310     3.67530     0.32097     0.00264     0.00000     0.24164     0.06302
     4.41250     0.72950    11.21000     0.12283     7.66885     3.68300     0.31781     0.00264     0.00000     0.23719     0.03019
     4.41250     0.72950    11.21000     0.12283     7.66885     3.68300     0.31781     0.00264     0.00000     0.25188     0.06356
     4.41250     0.72190    11.21000     0.12155     7.68439     3.69060     0.31468     0.00263     0.00000     0.23484     0.03154
     4.41250     0.72190    11.21000     0.12155     7.68439     3.69060     0.31468     0.00263     0.00000     0.24470     0.06512
     4.41250     0.71420    11.21000     0.12025     7.70013     3.69830     0.31151     0.00263     0.00000     0.23861     0.03186
     4.41250     0.71420    11.21000     0.12025     7.70013     3.69830     0.31151     0.00263     0.00000     0.26599     0.07166
     4.41250     0.70660    11.21000     0.11897     7.71568     3.70590     0.30837     0.00262     0.00000     0.25066     0.03255
     4.41250     0.70660    11.21000     0.11897     7.71568     3.70590     0.30837     0.00262     0.00000     0.25803     0.07071
     4.41250     0.69800    11.21000     0.11752     7.73326     3.71450     0.30481     0.00261     0.00000     0.23905     0.01589
     4.41250     0.69150    11.21000     0.11643     7.74655     3.72100     0.30211     0.00261     0.00000     0.24428     0.01610
     4.41250     0.68500    11.21000     0.11533     7.75985     3.72750     0.29942     0.00260     0.00000     0.23903     0.01616
     4.41250     0.67850    11.21000     0.11424     7.77314     3.73400     0.29672     0.00260     0.00000     0.23971     0.01621
     4.41250     0.67200    11.21000     0.11314     7.78643     3.74050     0.29401     0.00259     0.00000     0.24112     0.01642
     4.41250     0.66550    11.21000     0.11205     7.79972     3.74700     0.29130     0.00259     0.00000     0.23527     0.01627
     4.41250     0.65900    11.21000     0.11096     7.81301     3.75350     0.28859     0.00258     0.00000     0.23473     0.01674
     4.41250     0.65250    11.21000     0.10986     7.82631     3.76000     0.28587     0.00258     0.00000     0.24070     0.01706
     4.41250     0.64610    11.21000     0.10878     7.83939     3.76640     0.28319     0.00257     0.00000     0.24184     0.01741
     4.41250     0.63960    11.21000     0.10769     7.85268     3.77290     0.28047     0.00257     0.00000     0.23658     0.01733
     4.41250     0.63310    11.21000     0.10659     7.86598     3.77940     0.27774     0.00256     0.00000     0.23379     0.01760
     4.41250     0.62660    11.21000     0.10550     7.87927     3.78590     0.27501     0.00256     0.00000     0.23573     0.01838
     4.41250     0.62010    11.21000     0.10441     7.89256     3.79240     0.27228     0.00256     0.00000     0.23842     0.01862
     4.41250     0.61360    11.21000     0.10331     7.90585     3.79890     0.26954     0.00255     0.00000     0.23429     0.01895
     4.41250     0.60710    11.21000     0.10222     7.91914     3.80540     0.26680     0.00255     0.00000     0.24205     0.01917
     4.41250     0.60060    11.21000     0.10112     7.93244     3.81190     0.26405     0.00254     0.00000     0.29156     0.02251
     4.41250     3.55950    16.50000     1.29358     1.18747     0.85300     0.93835     0.00061     0.00000     0.00133     0.00384
     4.41250     3.52410    16.50000     1.28071     1.26677     0.88840     0.93637     0.00075     0.00000     0.02326     0.00165
     4.41250     3.48870    16.50000     1.26785     1.34606     0.92380     0.93428     0.00087     0.00000     0.05817     0.00149
     4.41250     3.45330    16.50000     1.25498     1.42536     0.95920     0.93208     0.00099     0.00000     0.10893     0.00231
     4.41250     3.41780    16.50000     1.24208     1.50487     0.99470     0.92977     0.00109     0.00000     0.12178     0.00259
     4.41250     3.38240    16.50000     1.22922     1.58417     1.03010     0.92735     0.00119     0.00000     0.10052     0.00219
     4.41250     3.34700    16.50000     1.21635     1.66346     1.06550     0.92482     0.00128     0.00000     0.08352     0.00184
     4.41250     3.31160    16.50000     1.20349     1.74276     1.10090     0.92218     0.00136     0.00000     0.07601     0.00168
     4.41250     3.27620    16.50000     1.19062     1.82205     1.13630     0.91942     0.00144     0.00000     0.07581     0.00167
     4.41250     3.23630    16.50000     1.17612     1.91143     1.17620     0.91617     0.00151     0.00000     0.07616     0.00177
     4.41250     3.20620    16.50000     1.16518     1.97885     1.20630     0.91361     0.00156     0.00000     0.07843     0.00180
     4.41250     3.17610    16.50000     1.15424     2.04627     1.23640     0.91097     0.00161     0.00000     0.08536     0.00193
     4.41250     3.14600    16.50000     1.14330     2.11370     1.26650     0.90824     0.00165     0.00000     0.10273     0.00228
     4.41250     3.11590    16.50000     1.13237     2.18112     1.29660     0.90541     0.00169     0.00000     0.12792     0.00278
     4.41250     3.08580    16.50000     1.12143     2.24854     1.32670     0.90250     0.00172     0.00000     0.14711     0.00317
     4.41250     3.05570    16.50000     1.11049     2.31596     1.35680     0.89948     0.00175     0.00000     0.14015     0.00305
     4.41250     3.02560    16.50000     1.09955     2.38339     1.38690     0.89638     0.00178     0.00000     0.12083     0.00267
     4.41250     2.99540    16.50000     1.08857     2.45103     1.41710     0.89317     0.00181     0.00000     0.10865     0.00242
     4.41250     2.96530    16.50000     1.07764     2.51846     1.44720     0.88987     0.00183     0.00000     0.10587     0.00236
     4.41250     2.93520    16.50000     1.06670     2.58588     1.47730     0.88647     0.00185     0.00000     0.11124     0.00247
     4.41250     2.90510    16.50000     1.05576     2.65330     1.50740     0.88297     0.00186     0.00000     0.11747     0.00261
     4.41250     2.87500    16.50000     1.04482     2.72073     1.53750     0.87937     0.00187     0.00000     0.12910     0.00284
     4.41250     2.84490    16.50000     1.03388     2.78815     1.56760     0.87567     0.00189     0.00000     0.14215     0.00311
     4.41250     2.81480    16.50000     1.02294     2.85557     1.59770     0.87186     0.00189     0.00000     0.15147     0.00329
     4.41250     2.78470    16.50000     1.01200     2.92299     1.62780     0.86795     0.00190     0.00000     0.14829     0.00323
     4.41250     2.75090    16.50000     0.99972     2.99870     1.66160     0.86344     0.00191     0.00000     0.13299     0.00300
     4.41250     2.72530    16.50000     0.99042     3.05605     1.68720     0.85992     0.00191     0.00000     0.12785     0.00289
     4.41250     2.69970    16.50000     0.98111     3.11339     1.71280     0.85633     0.00191     0.00000     0.12270     0.00279
     4.41250     2.67420    16.50000     0.97185     3.17051     1.73830     0.85268     0.00191     0.00000     0.12452     0.00282
     4.41250     2.64860    16.50000     0.96254     3.22785     1.76390     0.84893     0.00191     0.00000     0.11755     0.00269
     4.41250     2.62300    16.50000     0.95324     3.28520     1.78950     0.84510     0.00191     0.00000     0.11915     0.00272
     4.41250     2.59740    16.50000     0.94393     3.34254     1.81510     0.84119     0.00190     0.00000     0.11779     0.00270
     4.41250     2.57180    16.50000     0.93463     3.39988     1.84070     0.83719     0.00190     0.00000     0.12116     0.00276
     4.41250     2.54620    16.50000     0.92533     3.45722     1.86630     0.83312     0.00190     0.00000     0.11845     0.00272
     4.41250     2.52060    16.50000     0.91602     3.51457     1.89190     0.82896     0.00189     0.00000     0.12167     0.00279
     4.41250     2.49500    16.50000     0.90672     3.57191     1.91750     0.82471     0.00189     0.00000     0.12127     0.00278
     4.41250     2.46940    16.50000     0.89742     3.62925     1.94310     0.82038     0.00188     0.00000     0.11997     0.00277
     4.41250     2.44380    16.50000     0.88811     3.68660     1.96870     0.81597     0.00187     0.00000     0.11828     0.00273
     4.41250     2.41830    16.50000     0.87885     3.74372     1.99420     0.81149     0.00187     0.00000     0.11973     0.00277
     4.41250     2.39270    16.50000     0.86954     3.80106     2.01980     0.80690     0.00186     0.00000     0.12176     0.00281
     4.41250     2.36710    16.50000     0.86024     3.85840     2.04540     0.80223     0.00185     0.00000     0.11964     0.00276
     4.41250     2.33820    16.50000     0.84974     3.92314     2.07430     0.79685     0.00184     0.00000     0.11520     0.00267
     4.41250     2.31650    16.50000     0.84185     3.97174     2.09600     0.79273     0.00183     0.00000     0.11570     0.00267
     4.41250     2.29470    16.50000     0.83393     4.02057     2.11780     0.78853     0.00182     0.00000     0.11589     0.00267
     4.41250     2.27300    16.50000     0.82604     4.06918     2.13950     0.78429     0.00182     0.00000     0.11581     0.00266
     4.41250     2.25120    16.50000     0.81812     4.11801     2.16130     0.77996     0.00181     0.00000     0.11521     0.00266
     4.41250     2.22950    16.50000     0.81023     4.16662     2.18300     0.77559     0.00180     0.00000     0.11462     0.00265
     4.41250     2.20770    16.50000     0.80231     4.21545     2.20480     0.77113     0.00179     0.00000     0.11109     0.00258
     4.41250     2.18600    16.50000     0.79443     4.26406     2.22650     0.76663     0.00178     0.00000     0.11726     0.00270
     4.41250     2.16420    16.50000     0.78650     4.31289     2.24830     0.76204     0.00177     0.00000     0.11113     0.00258
     4.41250     2.14250    16.50000     0.77862     4.36150     2.27000     0.75740     0.00176     0.00000     0.11147     0.00260
     4.41250     2.12070    16.50000     0.77069     4.41033     2.29180     0.75268     0.00175     0.00000     0.11164     0.00260
     4.41250     2.09900    16.50000     0.76281     4.45893     2.31350     0.74791     0.00174     0.00000     0.11265     0.00263
     4.41250     2.07720    16.50000     0.75489     4.50777     2.33530     0.74305     0.00173     0.00000     0.11134     0.00261
     4.41250     2.05550    16.50000     0.74700     4.55637     2.35700     0.73815     0.00172     0.00000     0.10792     0.00255
     4.41250     2.03370    16.50000     0.73908     4.60520     2.37880     0.73316     0.00171     0.00000     0.10944     0.00258
     4.41250     2.01200    16.50000     0.73119     4.65381     2.40050     0.72812     0.00171     0.00000     0.10903     0.00256
     4.41250     1.98750    16.50000     0.72229     4.70869     2.42500     0.72235     0.00169     0.00000     0.10887     0.00267
     4.41250     1.96900    16.50000     0.71556     4.75013     2.44350     0.71794     0.00169     0.00000     0.10835     0.00265
     4.41250     1.95050    16.50000     0.70884     4.79157     2.46200     0.71348     0.00168     0.00000     0.10551     0.00260
     4.41250     1.93200    16.50000     0.70212     4.83301     2.48050     0.70896     0.00167     0.00000     0.10715     0.00262
     4.41250     1.91350    16.50000     0.69540     4.87445     2.49900     0.70440     0.00166     0.00000     0.10838     0.00264
     4.41250     1.89500    16.50000     0.68867     4.91589     2.51750     0.69979     0.00165     0.00000     0.10611     0.00260
     4.41250     1.87650    16.50000     0.68195     4.95733     2.53600     0.69513     0.00164     0.00000     0.10591     0.00260
     4.41250     1.85800    16.50000     0.67523     4.99877     2.55450     0.69042     0.00163     0.00000     0.10674     0.00262
     4.41250     1.83960    16.50000     0.66854     5.03998     2.57290     0.68569     0.00163     0.00000     0.10265     0.00254
     4.41250     1.82110    16.50000     0.66182     5.08142     2.59140     0.68088     0.00162     0.00000     0.10286     0.00256
     4.41250     1.80260    16.50000     0.65509     5.12286     2.60990     0.67603     0.00161     0.00000     0.10471     0.00261
     4.41250     1.78410    16.50000     0.64837     5.16430     2.62840     0.67112     0.00160     0.00000     0.10292     0.00258
     4.41250     1.76560    16.50000     0.64165     5.20574     2.64690     0.66616     0.00159     0.00000     0.10141     0.00256
     4.41250     1.74710    16.50000     0.63492     5.24718     2.66540     0.66115     0.00158     0.00000     0.10000     0.00254
     4.41250     1.72860    16.50000     0.62820     5.28862     2.68390     0.65609     0.00157     0.00000     0.09906     0.00252
     4.41250     1.71010    16.50000     0.62148     5.33006     2.70240     0.65099     0.00157     0.00000     0.10442     0.00261
     4.41250     1.68940    16.50000     0.61395     5.37642     2.72310     0.64521     0.00156     0.00000     0.09981     0.00269
     4.41250     1.67360    16.50000     0.60821     5.41181     2.73890     0.64077     0.00155     0.00000     0.10122     0.00272
     4.41250     1.65790    16.50000     0.60251     5.44698     2.75460     0.63631     0.00154     0.00000     0.09986     0.00270
     4.41250     1.64220    16.50000     0.59680     5.48215     2.77030     0.63182     0.00154     0.00000     0.10448     0.00276
     4.41250     1.62650    16.50000     0.59109     5.51732     2.78600     0.62729     0.00153     0.00000     0.09990     0.00269
     4.41250     1.61080    16.50000     0.58539     5.55248     2.80170     0.62273     0.00152     0.00000     0.09890     0.00268
     4.41250     1.59510    16.50000     0.57968     5.58765     2.81740     0.61813     0.00151     0.00000     0.09567     0.00261
     4.41250     1.57940    16.50000     0.57398     5.62282     2.83310     0.61349     0.00151     0.00000     0.09794     0.00266
     4.41250     1.56360    16.50000     0.56824     5.65821     2.84890     0.60879     0.00150     0.00000     0.09966     0.00271
     4.41250     1.54790    16.50000     0.56253     5.69338     2.86460     0.60409     0.00149     0.00000     0.09908     0.00270
     4.41250     1.53220    16.50000     0.55682     5.72854     2.88030     0.59935     0.00149     0.00000     0.09971     0.00273
     4.41250     1.51650    16.50000     0.55112     5.76371     2.89600     0.59457     0.00148     0.00000     0.09399     0.00264
     4.41250     1.50080    16.50000     0.54541     5.79888     2.91170     0.58976     0.00147     0.00000     0.09710     0.00271
     4.41250     1.48510    16.50000     0.53971     5.83405     2.92740     0.58491     0.00147     0.00000     0.09427     0.00266
     4.41250     1.46940    16.50000     0.53400     5.86921     2.94310     0.58003     0.00146     0.00000     0.09603     0.00270
     4.41250     1.45360    16.50000     0.52826     5.90461     2.95890     0.57508     0.00145     0.00000     0.09657     0.00270
     4.41250     1.43600    16.50000     0.52186     5.94403     2.97650     0.56953     0.00145     0.00000     0.09294     0.00268
     4.41250     1.42260    16.50000     0.51699     5.97404     2.98990     0.56527     0.00144     0.00000     0.08922     0.00260
     4.41250     1.40930    16.50000     0.51216     6.00384     3.00320     0.56102     0.00143     0.00000     0.09115     0.00263
     4.41250     1.39590    16.50000     0.50729     6.03385     3.01660     0.55671     0.00143     0.00000     0.09430     0.00268
     4.41250     1.38260    16.50000     0.50246     6.06364     3.02990     0.55241     0.00142     0.00000     0.09303     0.00268
     4.41250     1.36920    16.50000     0.49759     6.09366     3.04330     0.54805     0.00142     0.00000     0.09147     0.00264
     4.41250     1.35580    16.50000     0.49272     6.12367     3.05670     0.54367     0.00141     0.00000     0.09148     0.00265
     4.41250     1.34250    16.50000     0.48788     6.15347     3.07000     0.53929     0.00141     0.00000     0.09337     0.00269
     4.41250     1.32910    16.50000     0.48302     6.18348     3.08340     0.53486     0.00140     0.00000     0.09097     0.00266
     4.41250     1.31580    16.50000     0.47818     6.21327     3.09670     0.53044     0.00140     0.00000     0.09122     0.00268
     4.41250     1.30240    16.50000     0.47331     6.24329     3.11010     0.52595     0.00139     0.00000     0.08937     0.00265
     4.41250     1.28900    16.50000     0.46844     6.27330     3.12350     0.52145     0.00138     0.00000     0.08686     0.00263
     4.41250     1.27570    16.50000     0.46361     6.30309     3.13680     0.51695     0.00138     0.00000     0.08934     0.00269
     4.41250     1.26230    16.50000     0.45874     6.33311     3.15020     0.51240     0.00137     0.00000     0.08722     0.00266
     4.41250     1.24900    16.50000     0.45391     6.36290     3.16350     0.50785     0.00137     0.00000     0.08985     0.00272
     4.41250     1.23560    16.50000     0.44904     6.39292     3.17690     0.50325     0.00136     0.00000     0.09172     0.00274
     3.04400     2.70180    12.00500     0.35974     1.16277     0.34220     0.97152     0.00482     0.00000     0.00000     0.09411
     3.04400     2.67500    12.00500     0.35617     1.21663     0.36900     0.97034     0.00551     0.00000     0.27813     0.12988
     3.04400     2.64810    12.00500     0.35259     1.27069     0.39590     0.96905     0.00613     0.00000     0.76709     0.05552
     3.04400     2.62120    12.00500     0.34901     1.32475     0.42280     0.96764     0.00668     0.00000     1.46022     0.05235
     3.04400     2.59430    12.00500     0.34543     1.37881     0.44970     0.96613     0.00715     0.00000     2.58904     0.06012
     3.04400     2.56740    12.00500     0.34184     1.43287     0.47660     0.96450     0.00757     0.00000     3.58298     0.08044
     3.04400     2.54050    12.00500     0.33826     1.48693     0.50350     0.96276     0.00792     0.00000     3.86359     0.08642
     3.04400     2.51370    12.00500     0.33469     1.54079     0.53030     0.96090     0.00821     0.00000     3.32940     0.07594
     3.04400     2.48680    12.00500     0.33111     1.59486     0.55720     0.95891     0.00845     0.00000     2.56933     0.06102
     3.04400     2.45650    12.00500     0.32708     1.65575     0.58750     0.95653     0.00867     0.00000     1.91370     0.04667
     3.04400     2.43360    12.00500     0.32403     1.70177     0.61040     0.95462     0.00880     0.00000     1.56693     0.04002
     3.04400     2.41080    12.00500     0.32099     1.74759     0.63320     0.95262     0.00890     0.00000     1.44193     0.03753
     3.04400     2.38790    12.00500     0.31794     1.79361     0.65610     0.95052     0.00897     0.00000     1.29565     0.03458
     3.04400     2.36510    12.00500     0.31491     1.83943     0.67890     0.94834     0.00902     0.00000     1.24229     0.03349
     3.04400     2.34220    12.00500     0.31186     1.88546     0.70180     0.94604     0.00905     0.00000     1.20143     0.03280
     3.04400     2.31940    12.00500     0.30882     1.93128     0.72460     0.94366     0.00907     0.00000     1.14119     0.03153
     3.04400     2.29650    12.00500     0.30577     1.97730     0.74750     0.94116     0.00906     0.00000     1.18022     0.03210
     3.04400     2.27370    12.00500     0.30274     2.02312     0.77030     0.93857     0.00904     0.00000     1.22729     0.03296
     3.04400     2.25080    12.00500     0.29969     2.06914     0.79320     0.93586     0.00901     0.00000     1.34065     0.03520
     3.04400     2.22800    12.00500     0.29665     2.11496     0.81600     0.93306     0.00896     0.00000     1.33813     0.03507
     3.04400     2.20510    12.00500     0.29360     2.16099     0.83890     0.93013     0.00891     0.00000     1.53257     0.03886
     3.04400     2.18230    12.00500     0.29057     2.20681     0.86170     0.92711     0.00885     0.00000     1.72432     0.04249
     3.04400     2.15940    12.00500     0.28752     2.25283     0.88460     0.92396     0.00877     0.00000     1.75126     0.04321
     3.04400     2.13660    12.00500     0.28448     2.29865     0.90740     0.92072     0.00870     0.00000     1.75323     0.04325
     3.04400     2.11370    12.00500     0.28143     2.34467     0.93030     0.91734     0.00861     0.00000     1.56263     0.03957
     3.04400     2.08810    12.00500     0.27803     2.39612     0.95590     0.91342     0.00851     0.00000     1.35469     0.03372
     3.04400     2.06870    12.00500     0.27544     2.43511     0.97530     0.91035     0.00843     0.00000     1.27740     0.03218
     3.04400     2.04920    12.00500     0.27285     2.47430     0.99480     0.90718     0.00835     0.00000     1.20808     0.03084
     3.04400     2.02980    12.00500     0.27026     2.51328     1.01420     0.90394     0.00826     0.00000     1.20590     0.03066
     3.04400     2.01040    12.00500     0.26768     2.55227     1.03360     0.90061     0.00818     0.00000     1.17321     0.03011
     3.04400     1.99100    12.00500     0.26510     2.59126     1.05300     0.89718     0.00809     0.00000     1.12494     0.02919
     3.04400     1.97150    12.00500     0.26250     2.63045     1.07250     0.89365     0.00800     0.00000     1.14967     0.02953
     3.04400     1.95210    12.00500     0.25992     2.66944     1.09190     0.89004     0.00791     0.00000     1.18756     0.03025
     3.04400     1.93270    12.00500     0.25733     2.70843     1.11130     0.88634     0.00782     0.00000     1.18194     0.03011
     3.04400     1.91330    12.00500     0.25475     2.74741     1.13070     0.88255     0.00773     0.00000     1.21295     0.03079
     3.04400     1.89380    12.00500     0.25216     2.78660     1.15020     0.87864     0.00763     0.00000     1.22788     0.03113
     3.04400     1.87440    12.00500     0.24957     2.82559     1.16960     0.87465     0.00754     0.00000     1.25538     0.03183
     3.04400     1.85500    12.00500     0.24699     2.86458     1.18900     0.87057     0.00745     0.00000     1.21403     0.03105
     3.04400     1.83560    12.00500     0.24441     2.90357     1.20840     0.86638     0.00736     0.00000     1.14735     0.02995
     3.04400     1.81610    12.00500     0.24181     2.94276     1.22790     0.86208     0.00727     0.00000     1.11542     0.02926
     3.04400     1.79670    12.00500     0.23923     2.98174     1.24730     0.85770     0.00718     0.00000     1.08429     0.02869
     3.04400     1.77490    12.00500     0.23632     3.02556     1.26910     0.85265     0.00708     0.00000     0.96195     0.02377
     3.04400     1.75840    12.00500     0.23413     3.05872     1.28560     0.84875     0.00700     0.00000     0.88756     0.02239
     3.04400     1.74190    12.00500     0.23193     3.09188     1.30210     0.84477     0.00692     0.00000     0.88326     0.02223
     3.04400     1.72540    12.00500     0.22973     3.12504     1.31860     0.84071     0.00685     0.00000     0.84486     0.02144
     3.04400     1.70890    12.00500     0.22754     3.15820     1.33510     0.83658     0.00678     0.00000     0.82385     0.02107
     3.04400     1.69240    12.00500     0.22534     3.19136     1.35160     0.83238     0.00670     0.00000     0.79046     0.02047
     3.04400     1.67590    12.00500     0.22314     3.22452     1.36810     0.82810     0.00663     0.00000     0.78200     0.02027
     3.04400     1.65940    12.00500     0.22095     3.25768     1.38460     0.82374     0.00656     0.00000     0.78295     0.02029
     3.04400     1.64280    12.00500     0.21873     3.29104     1.40120     0.81927     0.00648     0.00000     0.76638     0.02000
     3.04400     1.62630    12.00500     0.21654     3.32420     1.41770     0.81476     0.00641     0.00000     0.76600     0.02005
     3.04400     1.60980    12.00500     0.21434     3.35736     1.43420     0.81017     0.00634     0.00000     0.76906     0.02016
     3.04400     1.59330    12.00500     0.21214     3.39052     1.45070     0.80549     0.00627     0.00000     0.74430     0.01982
     3.04400     1.57680    12.00500     0.20995     3.42368     1.46720     0.80074     0.00620     0.00000     0.73793     0.01967
     3.04400     1.56030    12.00500     0.20775     3.45684     1.48370     0.79591     0.00614     0.00000     0.74045     0.01982
     3.04400     1.54380    12.00500     0.20555     3.49000     1.50020     0.79100     0.00607     0.00000     0.72719     0.01959
     3.04400     1.52730    12.00500     0.20336     3.52316     1.51670     0.78601     0.00600     0.00000     0.73505     0.01960
     3.04400     1.50870    12.00500     0.20088     3.56054     1.53530     0.78029     0.00593     0.00000     0.72268     0.01934
     3.04400     1.49460    12.00500     0.19900     3.58887     1.54940     0.77588     0.00587     0.00000     0.68936     0.01878
     3.04400     1.48060    12.00500     0.19714     3.61701     1.56340     0.77144     0.00582     0.00000     0.69326     0.01877
     3.04400     1.46660    12.00500     0.19527     3.64514     1.57740     0.76695     0.00577     0.00000     0.70339     0.01891
     3.04400     1.45250    12.00500     0.19340     3.67348     1.59150     0.76236     0.00571     0.00000     0.69059     0.01870
     3.04400     1.43850    12.00500     0.19153     3.70162     1.60550     0.75775     0.00566     0.00000     0.68002     0.01852
     3.04400     1.42450    12.00500     0.18967     3.72975     1.61950     0.75308     0.00561     0.00000     0.67239     0.01839
     3.04400     1.41040    12.00500     0.18779     3.75809     1.63360     0.74831     0.00556     0.00000     0.64968     0.01795
     3.04400     1.39640    12.00500     0.18593     3.78622     1.64760     0.74352     0.00551     0.00000     0.67305     0.01845
     3.04400     1.38230    12.00500     0.18405     3.81456     1.66170     0.73863     0.00546     0.00000     0.63954     0.01796
     3.04400     1.36830    12.00500     0.18219     3.84270     1.67570     0.73372     0.00541     0.00000     0.64184     0.01807
     3.04400     1.35430    12.00500     0.18032     3.87083     1.68970     0.72874     0.00536     0.00000     0.63545     0.01815
     3.04400     1.34020    12.00500     0.17844     3.89917     1.70380     0.72368     0.00531     0.00000     0.60943     0.01763
     3.04400     1.32620    12.00500     0.17658     3.92730     1.71780     0.71858     0.00526     0.00000     0.61232     0.01777
     3.04400     1.31220    12.00500     0.17472     3.95544     1.73180     0.71343     0.00522     0.00000     0.60703     0.01763
     3.04400     1.29810    12.00500     0.17284     3.98378     1.74590     0.70817     0.00517     0.00000     0.58935     0.01729
     3.04400     1.28230    12.00500     0.17074     4.01553     1.76170     0.70222     0.00512     0.00000     0.59025     0.01645
     3.04400     1.27030    12.00500     0.16914     4.03965     1.77370     0.69764     0.00508     0.00000     0.57109     0.01611
     3.04400     1.25840    12.00500     0.16755     4.06356     1.78560     0.69305     0.00504     0.00000     0.57217     0.01607
     3.04400     1.24650    12.00500     0.16597     4.08748     1.79750     0.68843     0.00500     0.00000     0.57311     0.01603
     3.04400     1.23450    12.00500     0.16437     4.11159     1.80950     0.68372     0.00497     0.00000     0.56274     0.01594
     3.04400     1.22260    12.00500     0.16279     4.13551     1.82140     0.67900     0.00493     0.00000     0.53987     0.01554
     3.04400     1.21070    12.00500     0.16120     4.15942     1.83330     0.67424     0.00489     0.00000     0.54035     0.01553
     3.04400     1.19880    12.00500     0.15962     4.18334     1.84520     0.66944     0.00486     0.00000     0.53674     0.01544
     3.04400     1.18680    12.00500     0.15802     4.20746     1.85720     0.66455     0.00482     0.00000     0.54547     0.01568
     3.04400     1.17490    12.00500     0.15644     4.23137     1.86910     0.65966     0.00479     0.00000     0.52539     0.01543
     3.04400     1.16300    12.00500     0.15485     4.25529     1.88100     0.65473     0.00475     0.00000     0.53108     0.01559
     3.04400     1.15110    12.00500     0.15327     4.27920     1.89290     0.64975     0.00472     0.00000     0.50588     0.01535
     3.04400     1.13910    12.00500     0.15167     4.30332     1.90490     0.64468     0.00468     0.00000     0.50367     0.01530
     3.04400     1.12720    12.00500     0.15008     4.32723     1.91680     0.63962     0.00465     0.00000     0.51122     0.01561
     3.04400     1.11530    12.00500     0.14850     4.35115     1.92870     0.63451     0.00462     0.00000     0.51595     0.01559
     3.04400     1.10330    12.00500     0.14690     4.37527     1.94070     0.62931     0.00458     0.00000     0.51555     0.01561
     3.04400     1.09010    12.00500     0.14514     4.40179     1.95390     0.62355     0.00455     0.00000     0.50301     0.01557
     3.04400     1.07990    12.00500     0.14379     4.42229     1.96410     0.61905     0.00452     0.00000     0.49282     0.01541
     3.04400     1.06980    12.00500     0.14244     4.44259     1.97420     0.61457     0.00449     0.00000     0.49193     0.01534
     3.04400     1.05960    12.00500     0.14108     4.46309     1.98440     0.61002     0.00447     0.00000     0.49659     0.01535
     3.04400     1.04950    12.00500     0.13974     4.48339     1.99450     0.60547     0.00444     0.00000     0.47703     0.01507
     3.04400     1.03940    12.00500     0.13839     4.50368     2.00460     0.60090     0.00441     0.00000     0.47978     0.01515
     3.04400     1.02920    12.00500     0.13704     4.52418     2.01480     0.59625     0.00439     0.00000     0.48653     0.01535
     3.04400     1.01910    12.00500     0.13569     4.54448     2.02490     0.59161     0.00436     0.00000     0.47224     0.01514
     3.04400     1.00890    12.00500     0.13433     4.56498     2.03510     0.58690     0.00434     0.00000     0.48113     0.01544
     3.04400     0.99880    12.00500     0.13299     4.58528     2.04520     0.58221     0.00431     0.00000     0.46669     0.01523
     3.04400     0.98870    12.00500     0.13164     4.60558     2.05530     0.57748     0.00429     0.00000     0.47371     0.01543
     3.04400     0.97850    12.00500     0.13028     4.62608     2.06550     0.57267     0.00426     0.00000     0.45759     0.01534
     3.04400     0.96840    12.00500     0.12894     4.64637     2.07560     0.56788     0.00424     0.00000     0.44623     0.01523
     3.04400     0.95820    12.00500     0.12758     4.66687     2.08580     0.56302     0.00421     0.00000     0.44959     0.01545
     3.04400     0.94810    12.00500     0.12624     4.68717     2.09590     0.55817     0.00419     0.00000     0.45979     0.01563
     3.04400     0.93800    12.00500     0.12489     4.70747     2.10600     0.55329     0.00416     0.00000     0.45947     0.01559
     3.04400     0.92650    12.00500     0.12336     4.73058     2.11750     0.54770     0.00414     0.00000     0.44652     0.01541
     3.04400     0.91790    12.00500     0.12222     4.74786     2.12610     0.54349     0.00412     0.00000     0.43116     0.01518
     3.04400     0.90930    12.00500     0.12107     4.76515     2.13470     0.53926     0.00410     0.00000     0.43715     0.01533
     3.04400     0.90070    12.00500     0.11993     4.78243     2.14330     0.53501     0.00408     0.00000     0.45381     0.01559
     3.04400     0.89210    12.00500     0.11878     4.79971     2.15190     0.53074     0.00406     0.00000     0.44288     0.01547
     3.04400     0.88340    12.00500     0.11762     4.81720     2.16060     0.52640     0.00404     0.00000     0.43037     0.01531
     3.04400     0.87480    12.00500     0.11648     4.83448     2.16920     0.52208     0.00402     0.00000     0.44307     0.01560
     3.04400     0.86620    12.00500     0.11533     4.85176     2.17780     0.51775     0.00400     0.00000     0.43276     0.01553
     3.04400     0.85760    12.00500     0.11419     4.86905     2.18640     0.51339     0.00398     0.00000     0.43660     0.01569
     3.04400     0.84900    12.00500     0.11304     4.88633     2.19500     0.50902     0.00397     0.00000     0.42655     0.01578
     3.04400     0.84040    12.00500     0.11190     4.90361     2.20360     0.50462     0.00395     0.00000     0.43273     0.01603
     3.04400     0.83170    12.00500     0.11074     4.92110     2.21230     0.50015     0.00393     0.00000     0.41684     0.01587
     3.04400     0.82310    12.00500     0.10959     4.93838     2.22090     0.49571     0.00391     0.00000     0.41867     0.01601
     3.04400     0.81450    12.00500     0.10845     4.95566     2.22950     0.49125     0.00389     0.00000     0.41842     0.01623
     3.04400     0.80590    12.00500     0.10730     4.97295     2.23810     0.48677     0.00388     0.00000     0.42767     0.01647
     3.04400     0.79730    12.00500     0.10616     4.99023     2.24670     0.48227     0.00386     0.00000     0.42756     0.01632
     3.04400     0.78740    12.00500     0.10484     5.01013     2.25660     0.47707     0.00384     0.00000     0.42100     0.01758
     3.04400     0.78010    12.00500     0.10387     5.02480     2.26390     0.47321     0.00382     0.00000     0.41223     0.01734
     3.04400     0.77280    12.00500     0.10290     5.03947     2.27120     0.46934     0.00381     0.00000     0.41898     0.01768
     3.04400     0.76550    12.00500     0.10192     5.05414     2.27850     0.46546     0.00380     0.00000     0.43458     0.01784
     3.04400     0.75810    12.00500     0.10094     5.06901     2.28590     0.46151     0.00378     0.00000     0.41221     0.01763
     3.04400     0.75080    12.00500     0.09997     5.08368     2.29320     0.45760     0.00377     0.00000     0.41621     0.01782
     3.04400     0.74350    12.00500     0.09900     5.09835     2.30050     0.45367     0.00375     0.00000     0.41750     0.01784
     3.04400     0.73620    12.00500     0.09802     5.11302     2.30780     0.44973     0.00374     0.00000     0.42431     0.01816
     3.04400     0.72880    12.00500     0.09704     5.12790     2.31520     0.44572     0.00372     0.00000     0.42979     0.01854
     3.04400     0.72150    12.00500     0.09607     5.14257     2.32250     0.44176     0.00371     0.00000     0.40166     0.01841
     3.04400     0.71420    12.00500     0.09509     5.15724     2.32980     0.43777     0.00370     0.00000     0.41206     0.01870
     3.04400     0.70690    12.00500     0.09412     5.17191     2.33710     0.43378     0.00368     0.00000     0.40179     0.01895
     3.04400     0.69950    12.00500     0.09314     5.18678     2.34450     0.42972     0.00367     0.00000     0.39434     0.01879
     3.04400     0.69220    12.00500     0.09216     5.20145     2.35180     0.42569     0.00366     0.00000     0.39883     0.01919
     3.04400     0.68490    12.00500     0.09119     5.21612     2.35910     0.42166     0.00364     0.00000     0.39955     0.01931
     3.04400     0.67760    12.00500     0.09022     5.23079     2.36640     0.41761     0.00363     0.00000     0.41142     0.01948
     3.04400     0.66940    12.00500     0.08913     5.24727     2.37460     0.41305     0.00362     0.00000     0.40347     0.02012
     3.04400     0.66320    12.00500     0.08830     5.25973     2.38080     0.40958     0.00361     0.00000     0.40449     0.02011
     3.04400     0.65690    12.00500     0.08746     5.27239     2.38710     0.40606     0.00359     0.00000     0.40646     0.02025
     3.04400     0.65070    12.00500     0.08664     5.28485     2.39330     0.40258     0.00358     0.00000     0.41102     0.02035
     3.04400     0.64450    12.00500     0.08581     5.29731     2.39950     0.39909     0.00357     0.00000     0.41460     0.02092
     3.04400     0.63830    12.00500     0.08499     5.30977     2.40570     0.39559     0.00356     0.00000     0.40477     0.02075
     3.04400     0.63200    12.00500     0.08415     5.32243     2.41200     0.39202     0.00355     0.00000     0.39520     0.02087
     3.04400     0.62580    12.00500     0.08332     5.33489     2.41820     0.38851     0.00354     0.00000     0.39261     0.02092
     3.04400     0.61960    12.00500     0.08250     5.34735     2.42440     0.38498     0.00353     0.00000     0.41107     0.02162
     3.04400     0.61340    12.00500     0.08167     5.35981     2.43060     0.38144     0.00352     0.00000     0.39727     0.02164
     3.04400     0.60710    12.00500     0.08083     5.37248     2.43690     0.37784     0.00351     0.00000     0.39512     0.02208
     3.04400     0.60090    12.00500     0.08001     5.38494     2.44310     0.37429     0.00350     0.00000     0.39557     0.02257
     3.04400     0.59470    12.00500     0.07918     5.39740     2.44930     0.37073     0.00349     0.00000     0.37392     0.02210
     3.04400     0.58850    12.00500     0.07836     5.40986     2.45550     0.36716     0.00348     0.00000     0.38851     0.02285
     3.04400     0.58220    12.00500     0.07752     5.42252     2.46180     0.36352     0.00347     0.00000     0.39685     0.02325
     3.04400     0.57600    12.00500     0.07669     5.43498     2.46800     0.35993     0.00346     0.00000     0.38816     0.02308
     3.04400     0.56900    12.00500     0.07576     5.44904     2.47500     0.35587     0.00345     0.00000     0.38872     0.02547
     3.04400     0.56370    12.00500     0.07506     5.45970     2.48030     0.35279     0.00344     0.00000     0.39162     0.02563
     3.04400     0.55840    12.00500     0.07435     5.47035     2.48560     0.34970     0.00343     0.00000     0.39026     0.02574
     3.04400     0.55310    12.00500     0.07364     5.48100     2.49090     0.34661     0.00342     0.00000     0.38463     0.02578
     3.04400     0.54780    12.00500     0.07294     5.49165     2.49620     0.34351     0.00341     0.00000     0.39049     0.02615
     3.04400     0.54250    12.00500     0.07223     5.50230     2.50150     0.34040     0.00341     0.00000     0.39584     0.02670
     3.04400     0.53720    12.00500     0.07153     5.51295     2.50680     0.33729     0.00340     0.00000     0.38966     0.02742
     3.04400     0.53190    12.00500     0.07082     5.52360     2.51210     0.33417     0.00339     0.00000     0.38617     0.02763
     3.04400     0.52670    12.00500     0.07013     5.53405     2.51730     0.33111     0.00338     0.00000     0.38508     0.02785
     3.04400     0.52140    12.00500     0.06942     5.54471     2.52260     0.32798     0.00337     0.00000     0.38053     0.02817
     3.04400     0.51610    12.00500     0.06872     5.55536     2.52790     0.32484     0.00337     0.00000     0.40099     0.02916
     3.04400     0.51080    12.00500     0.06801     5.56601     2.53320     0.32170     0.00336     0.00000     0.38652     0.02973
     3.04400     0.50550    12.00500     0.06731     5.57666     2.53850     0.31855     0.00335     0.00000     0.38182     0.02984
     3.04400     0.50020    12.00500     0.06660     5.58731     2.54380     0.31540     0.00334     0.00000     0.37669     0.03024
     3.04400     0.49490    12.00500     0.06589     5.59796     2.54910     0.31224     0.00333     0.00000     0.39240     0.03074
     3.04400     0.48960    12.00500     0.06519     5.60861     2.55440     0.30908     0.00333     0.00000     0.38969     0.03081
     3.04400     0.48360    12.00500     0.06439     5.62067     2.56040     0.30549     0.00332     0.00000     0.38116     0.03349
     3.04400     0.47910    12.00500     0.06379     5.62972     2.56490     0.30280     0.00331     0.00000     0.39817     0.03409
     3.04400     0.47460    12.00500     0.06319     5.63876     2.56940     0.30010     0.00330     0.00000     0.40020     0.03428
     3.04400     0.47010    12.00500     0.06259     5.64780     2.57390     0.29739     0.00330     0.00000     0.39593     0.03454
     3.04400     0.46560    12.00500     0.06199     5.65685     2.57840     0.29469     0.00329     0.00000     0.38036     0.03467
     3.04400     0.46110    12.00500     0.06139     5.66589     2.58290     0.29198     0.00329     0.00000     0.40065     0.03610
     3.04400     0.45660    12.00500     0.06080     5.67493     2.58740     0.28926     0.00328     0.00000     0.38672     0.03625
     3.04400     0.45210    12.00500     0.06020     5.68398     2.59190     0.28654     0.00327     0.00000     0.37485     0.03623
     3.04400     0.44770    12.00500     0.05961     5.69282     2.59630     0.28388     0.00327     0.00000     0.38133     0.03737
     3.04400     0.44320    12.00500     0.05901     5.70186     2.60080     0.28116     0.00326     0.00000     0.40294     0.03883
     3.04400     0.43870    12.00500     0.05841     5.71091     2.60530     0.27843     0.00325     0.00000     0.40250     0.03941
     3.04400     0.43420    12.00500     0.05781     5.71995     2.60980     0.27569     0.00325     0.00000     0.38376     0.03975
     3.04400     0.42970    12.00500     0.05721     5.72899     2.61430     0.27296     0.00324     0.00000     0.40273     0.04051
     3.04400     0.42520    12.00500     0.05661     5.73804     2.61880     0.27022     0.00324     0.00000     0.39188     0.04100
     3.04400     0.42070    12.00500     0.05602     5.74708     2.62330     0.26747     0.00323     0.00000     0.39825     0.04199
     3.04400     0.41620    12.00500     0.05542     5.75613     2.62780     0.26473     0.00322     0.00000     0.39364     0.04185
     3.04400     1.35690    19.83000     0.48984     3.55644     1.68710     0.70612     0.00163     0.00000     0.14207     0.00356
     3.04400     1.34420    19.83000     0.48525     3.58485     1.69980     0.70177     0.00163     0.00000     0.14157     0.00354
     3.04400     1.33160    19.83000     0.48070     3.61305     1.71240     0.69741     0.00162     0.00000     0.14183     0.00355
     3.04400     1.31900    19.83000     0.47616     3.64124     1.72500     0.69301     0.00161     0.00000     0.14162     0.00353
     3.04400     1.30640    19.83000     0.47161     3.66943     1.73760     0.68855     0.00161     0.00000     0.14314     0.00356
     3.04400     1.29380    19.83000     0.46706     3.69763     1.75020     0.68405     0.00160     0.00000     0.14129     0.00354
     3.04400     1.28110    19.83000     0.46247     3.72604     1.76290     0.67946     0.00159     0.00000     0.13975     0.00351
     3.04400     1.26850    19.83000     0.45793     3.75424     1.77550     0.67486     0.00158     0.00000     0.13573     0.00343
     3.04400     1.25590    19.83000     0.45338     3.78243     1.78810     0.67022     0.00158     0.00000     0.13524     0.00343
     3.04400     1.24330    19.83000     0.44883     3.81062     1.80070     0.66552     0.00157     0.00000     0.13253     0.00339
     3.04400     1.23060    19.83000     0.44424     3.83904     1.81340     0.66074     0.00156     0.00000     0.13512     0.00345
     3.04400     1.21800    19.83000     0.43970     3.86723     1.82600     0.65595     0.00156     0.00000     0.13053     0.00339
     3.04400     1.20540    19.83000     0.43515     3.89543     1.83860     0.65111     0.00155     0.00000     0.12815     0.00335
     3.04400     1.19280    19.83000     0.43060     3.92362     1.85120     0.64623     0.00154     0.00000     0.12698     0.00334
     3.04400     1.18020    19.83000     0.42605     3.95181     1.86380     0.64129     0.00154     0.00000     0.12902     0.00339
     3.04400     1.16750    19.83000     0.42147     3.98023     1.87650     0.63627     0.00153     0.00000     0.12883     0.00336
     3.04400     1.15330    19.83000     0.41634     4.01200     1.89070     0.63060     0.00152     0.00000     0.12674     0.00333
     3.04400     1.14250    19.83000     0.41244     4.03617     1.90150     0.62624     0.00151     0.00000     0.12871     0.00338
     3.04400     1.13180    19.83000     0.40858     4.06011     1.91220     0.62189     0.00151     0.00000     0.12566     0.00331
     3.04400     1.12110    19.83000     0.40471     4.08405     1.92290     0.61751     0.00150     0.00000     0.12647     0.00333
     3.04400     1.11030    19.83000     0.40082     4.10822     1.93370     0.61305     0.00150     0.00000     0.12718     0.00334
     3.04400     1.09960    19.83000     0.39695     4.13216     1.94440     0.60860     0.00149     0.00000     0.12279     0.00326
     3.04400     1.08890    19.83000     0.39309     4.15610     1.95510     0.60411     0.00148     0.00000     0.12095     0.00324
     3.04400     1.07820    19.83000     0.38923     4.18004     1.96580     0.59959     0.00148     0.00000     0.12186     0.00325
     3.04400     1.06740    19.83000     0.38533     4.20421     1.97660     0.59499     0.00147     0.00000     0.12235     0.00328
     3.04400     1.05670    19.83000     0.38147     4.22815     1.98730     0.59040     0.00147     0.00000     0.12384     0.00332
     3.04400     1.04600    19.83000     0.37760     4.25209     1.99800     0.58577     0.00146     0.00000     0.12151     0.00329
     3.04400     1.03530    19.83000     0.37374     4.27603     2.00870     0.58112     0.00145     0.00000     0.12129     0.00330
     3.04400     1.02450    19.83000     0.36984     4.30020     2.01950     0.57638     0.00145     0.00000     0.11928     0.00329
     3.04400     1.01380    19.83000     0.36598     4.32414     2.03020     0.57165     0.00144     0.00000     0.11715     0.00325
     3.04400     1.00310    19.83000     0.36212     4.34808     2.04090     0.56689     0.00144     0.00000     0.11990     0.00331
     3.04400     0.99230    19.83000     0.35822     4.37225     2.05170     0.56205     0.00143     0.00000     0.12044     0.00330
     3.04400     0.98030    19.83000     0.35389     4.39910     2.06370     0.55663     0.00142     0.00000     0.11772     0.00341
     3.04400     0.97120    19.83000     0.35060     4.41946     2.07280     0.55249     0.00142     0.00000     0.11853     0.00342
     3.04400     0.96210    19.83000     0.34732     4.43982     2.08190     0.54833     0.00141     0.00000     0.11734     0.00339
     3.04400     0.95290    19.83000     0.34399     4.46040     2.09110     0.54410     0.00141     0.00000     0.12033     0.00346
     3.04400     0.94380    19.83000     0.34071     4.48077     2.10020     0.53989     0.00140     0.00000     0.12116     0.00346
     3.04400     0.93470    19.83000     0.33742     4.50113     2.10930     0.53566     0.00140     0.00000     0.11548     0.00338
     3.04400     0.92560    19.83000     0.33414     4.52149     2.11840     0.53140     0.00139     0.00000     0.11665     0.00340
     3.04400     0.91650    19.83000     0.33085     4.54185     2.12750     0.52712     0.00139     0.00000     0.11396     0.00335
     3.04400     0.90730    19.83000     0.32753     4.56244     2.13670     0.52277     0.00138     0.00000     0.11517     0.00338
     3.04400     0.89820    19.83000     0.32425     4.58280     2.14580     0.51844     0.00138     0.00000     0.11662     0.00344
     3.04400     0.88910    19.83000     0.32096     4.60316     2.15490     0.51408     0.00137     0.00000     0.11565     0.00346
     3.04400     0.88000    19.83000     0.31768     4.62352     2.16400     0.50971     0.00137     0.00000     0.11253     0.00343
     3.04400     0.87090    19.83000     0.31439     4.64388     2.17310     0.50531     0.00136     0.00000     0.11359     0.00345
     3.04400     0.86170    19.83000     0.31107     4.66447     2.18230     0.50084     0.00136     0.00000     0.11319     0.00347
     3.04400     0.85260    19.83000     0.30779     4.68483     2.19140     0.49639     0.00135     0.00000     0.11073     0.00344
     3.04400     0.84350    19.83000     0.30450     4.70519     2.20050     0.49192     0.00135     0.00000     0.11398     0.00347
     3.04400     0.83320    19.83000     0.30078     4.72824     2.21080     0.48683     0.00134     0.00000     0.11029     0.00453
     3.04400     0.82550    19.83000     0.29800     4.74547     2.21850     0.48301     0.00134     0.00000     0.11441     0.00464
     3.04400     0.81770    19.83000     0.29519     4.76292     2.22630     0.47912     0.00134     0.00000     0.10850     0.00458
     3.04400     0.81000    19.83000     0.29241     4.78015     2.23400     0.47526     0.00133     0.00000     0.11253     0.00461
     3.04400     0.80220    19.83000     0.28959     4.79760     2.24180     0.47134     0.00133     0.00000     0.11321     0.00461
     3.04400     0.79450    19.83000     0.28681     4.81483     2.24950     0.46745     0.00132     0.00000     0.11013     0.00457
     3.04400     0.78670    19.83000     0.28400     4.83228     2.25730     0.46350     0.00132     0.00000     0.11242     0.00466
     3.04400     0.77900    19.83000     0.28122     4.84951     2.26500     0.45958     0.00132     0.00000     0.11323     0.00475
     3.04400     0.77120    19.83000     0.27840     4.86697     2.27280     0.45559     0.00131     0.00000     0.11059     0.00470
     3.04400     0.76350    19.83000     0.27562     4.88420     2.28050     0.45164     0.00131     0.00000     0.11191     0.00479
     3.04400     0.75570    19.83000     0.27281     4.90165     2.28830     0.44762     0.00131     0.00000     0.10967     0.00477
     3.04400     0.74800    19.83000     0.27003     4.91888     2.29600     0.44364     0.00130     0.00000     0.11208     0.00490
     3.04400     0.74020    19.83000     0.26721     4.93633     2.30380     0.43958     0.00130     0.00000     0.11115     0.00489
     3.04400     0.73250    19.83000     0.26443     4.95356     2.31150     0.43557     0.00129     0.00000     0.11083     0.00494
     3.04400     0.72470    19.83000     0.26162     4.97101     2.31930     0.43149     0.00129     0.00000     0.10962     0.00497
     3.04400     0.71700    19.83000     0.25884     4.98824     2.32700     0.42744     0.00129     0.00000     0.11177     0.00494
     3.04400     0.70820    19.83000     0.25566     5.00793     2.33580     0.42280     0.00128     0.00000     0.10833     0.00374
     3.04400     0.70160    19.83000     0.25328     5.02270     2.34240     0.41930     0.00128     0.00000     0.10871     0.00375
     3.04400     0.69500    19.83000     0.25089     5.03747     2.34900     0.41579     0.00128     0.00000     0.11012     0.00380
     3.04400     0.68840    19.83000     0.24851     5.05224     2.35560     0.41228     0.00127     0.00000     0.10955     0.00378
     3.04400     0.68190    19.83000     0.24616     5.06678     2.36210     0.40880     0.00127     0.00000     0.11218     0.00383
     3.04400     0.67530    19.83000     0.24378     5.08155     2.36870     0.40526     0.00127     0.00000     0.10764     0.00379
     3.04400     0.66870    19.83000     0.24140     5.09631     2.37530     0.40171     0.00126     0.00000     0.11256     0.00391
     3.04400     0.66210    19.83000     0.23902     5.11108     2.38190     0.39815     0.00126     0.00000     0.10792     0.00386
     3.04400     0.65550    19.83000     0.23663     5.12585     2.38850     0.39458     0.00126     0.00000     0.10902     0.00391
     3.04400     0.64890    19.83000     0.23425     5.14062     2.39510     0.39100     0.00125     0.00000     0.11115     0.00397
     3.04400     0.64230    19.83000     0.23187     5.15539     2.40170     0.38740     0.00125     0.00000     0.10799     0.00395
     3.04400     0.63570    19.83000     0.22949     5.17015     2.40830     0.38380     0.00125     0.00000     0.11232     0.00412
     3.04400     0.62920    19.83000     0.22714     5.18470     2.41480     0.38024     0.00125     0.00000     0.10837     0.00404
     3.04400     0.62260    19.83000     0.22476     5.19947     2.42140     0.37662     0.00124     0.00000     0.10792     0.00409
     3.04400     0.61600    19.83000     0.22237     5.21423     2.42800     0.37298     0.00124     0.00000     0.10493     0.00404
     3.04400     0.60940    19.83000     0.21999     5.22900     2.43460     0.36934     0.00124     0.00000     0.09838     0.00385
     3.04400     1.28830    22.71000     0.60807     3.56693     1.75570     0.67136     0.00112     0.00000     0.08538     0.00270
     3.04400     1.27630    22.71000     0.60241     3.59511     1.76770     0.66710     0.00112     0.00000     0.08405     0.00267
     3.04400     1.26430    22.71000     0.59675     3.62330     1.77970     0.66280     0.00112     0.00000     0.08721     0.00273
     3.04400     1.25230    22.71000     0.59108     3.65148     1.79170     0.65846     0.00111     0.00000     0.08480     0.00266
     3.04400     1.24030    22.71000     0.58542     3.67966     1.80370     0.65407     0.00111     0.00000     0.08595     0.00268
     3.04400     1.22840    22.71000     0.57980     3.70761     1.81560     0.64968     0.00111     0.00000     0.08256     0.00263
     3.04400     1.21640    22.71000     0.57414     3.73579     1.82760     0.64521     0.00110     0.00000     0.08777     0.00275
     3.04400     1.20440    22.71000     0.56847     3.76397     1.83960     0.64070     0.00110     0.00000     0.08322     0.00266
     3.04400     1.19240    22.71000     0.56281     3.79216     1.85160     0.63614     0.00110     0.00000     0.08579     0.00273
     3.04400     1.18040    22.71000     0.55715     3.82034     1.86360     0.63154     0.00109     0.00000     0.08395     0.00270
     3.04400     1.16840    22.71000     0.55148     3.84852     1.87560     0.62690     0.00109     0.00000     0.08563     0.00275
     3.04400     1.15650    22.71000     0.54587     3.87647     1.88750     0.62225     0.00109     0.00000     0.08252     0.00272
     3.04400     1.14450    22.71000     0.54020     3.90465     1.89950     0.61752     0.00108     0.00000     0.08200     0.00271
     3.04400     1.13250    22.71000     0.53454     3.93284     1.91150     0.61275     0.00108     0.00000     0.08270     0.00276
     3.04400     1.12050    22.71000     0.52887     3.96102     1.92350     0.60794     0.00108     0.00000     0.08000     0.00269
     3.04400     1.10850    22.71000     0.52321     3.98920     1.93550     0.60308     0.00107     0.00000     0.08035     0.00268
     3.04400     1.09960    22.71000     0.51901     4.01010     1.94440     0.59945     0.00107     0.00000     0.07841     0.00297
     3.04400     1.08940    22.71000     0.51419     4.03406     1.95460     0.59526     0.00107     0.00000     0.07748     0.00293
     3.04400     1.07920    22.71000     0.50938     4.05801     1.96480     0.59104     0.00107     0.00000     0.08124     0.00302
     3.04400     1.06890    22.71000     0.50452     4.08220     1.97510     0.58675     0.00106     0.00000     0.07984     0.00297
     3.04400     1.05870    22.71000     0.49970     4.10616     1.98530     0.58247     0.00106     0.00000     0.08126     0.00300
     3.04400     1.04850    22.71000     0.49489     4.13011     1.99550     0.57816     0.00106     0.00000     0.07988     0.00302
     3.04400     1.03820    22.71000     0.49003     4.15430     2.00580     0.57377     0.00105     0.00000     0.07985     0.00300
     3.04400     1.02800    22.71000     0.48521     4.17826     2.01600     0.56940     0.00105     0.00000     0.08161     0.00304
     3.04400     1.01780    22.71000     0.48040     4.20221     2.02620     0.56499     0.00105     0.00000     0.08196     0.00305
     3.04400     1.00760    22.71000     0.47558     4.22617     2.03640     0.56056     0.00104     0.00000     0.07794     0.00302
     3.04400     0.99730    22.71000     0.47072     4.25036     2.04670     0.55605     0.00104     0.00000     0.08033     0.00307
     3.04400     0.98710    22.71000     0.46591     4.27431     2.05690     0.55155     0.00104     0.00000     0.07486     0.00303
     3.04400     0.97690    22.71000     0.46109     4.29827     2.06710     0.54702     0.00103     0.00000     0.07943     0.00313
     3.04400     0.96660    22.71000     0.45623     4.32246     2.07740     0.54242     0.00103     0.00000     0.08039     0.00317
     3.04400     0.95640    22.71000     0.45142     4.34641     2.08760     0.53783     0.00103     0.00000     0.07702     0.00312
     3.04400     0.94620    22.71000     0.44660     4.37037     2.09780     0.53321     0.00103     0.00000     0.07959     0.00313
     3.04400     0.93470    22.71000     0.44118     4.39738     2.10930     0.52797     0.00102     0.00000     0.07694     0.00337
     3.04400     0.92600    22.71000     0.43707     4.41781     2.11800     0.52398     0.00102     0.00000     0.07841     0.00339
     3.04400     0.91730    22.71000     0.43296     4.43824     2.12670     0.51996     0.00102     0.00000     0.07563     0.00330
     3.04400     0.90860    22.71000     0.42886     4.45867     2.13540     0.51593     0.00101     0.00000     0.07692     0.00332
     3.04400     0.89990    22.71000     0.42475     4.47911     2.14410     0.51187     0.00101     0.00000     0.08048     0.00340
     3.04400     0.89120    22.71000     0.42064     4.49954     2.15280     0.50779     0.00101     0.00000     0.07621     0.00333
     3.04400     0.88250    22.71000     0.41654     4.51997     2.16150     0.50370     0.00101     0.00000     0.07439     0.00329
     3.04400     0.87380    22.71000     0.41243     4.54040     2.17020     0.49957     0.00100     0.00000     0.07767     0.00338
     3.04400     0.86520    22.71000     0.40837     4.56060     2.17880     0.49548     0.00100     0.00000     0.07750     0.00341
     3.04400     0.85650    22.71000     0.40427     4.58103     2.18750     0.49132     0.00100     0.00000     0.07603     0.00339
     3.04400     0.84780    22.71000     0.40016     4.60147     2.19620     0.48713     0.00099     0.00000     0.07752     0.00344
     3.04400     0.83910    22.71000     0.39605     4.62190     2.20490     0.48293     0.00099     0.00000     0.07568     0.00348
     3.04400     0.83040    22.71000     0.39195     4.64233     2.21360     0.47870     0.00099     0.00000     0.08015     0.00359
     3.04400     0.82170    22.71000     0.38784     4.66276     2.22230     0.47445     0.00099     0.00000     0.07284     0.00353
     3.04400     0.81300    22.71000     0.38373     4.68319     2.23100     0.47018     0.00098     0.00000     0.07843     0.00362
     3.04400     0.80430    22.71000     0.37963     4.70363     2.23970     0.46589     0.00098     0.00000     0.07952     0.00360
     3.04400     0.79440    22.71000     0.37495     4.72688     2.24960     0.46099     0.00098     0.00000     0.07332     0.00350
     3.04400     0.78700    22.71000     0.37146     4.74426     2.25700     0.45730     0.00098     0.00000     0.07674     0.00354
     3.04400     0.77960    22.71000     0.36797     4.76164     2.26440     0.45360     0.00097     0.00000     0.07302     0.00345
     3.04400     0.77230    22.71000     0.36452     4.77878     2.27170     0.44994     0.00097     0.00000     0.07414     0.00350
     3.04400     0.76490    22.71000     0.36103     4.79616     2.27910     0.44621     0.00097     0.00000     0.07649     0.00357
     3.04400     0.75750    22.71000     0.35754     4.81354     2.28650     0.44247     0.00097     0.00000     0.07477     0.00356
     3.04400     0.75010    22.71000     0.35405     4.83092     2.29390     0.43871     0.00097     0.00000     0.07622     0.00364
     3.04400     0.74270    22.71000     0.35055     4.84830     2.30130     0.43494     0.00096     0.00000     0.07617     0.00364
     3.04400     0.73530    22.71000     0.34706     4.86568     2.30870     0.43115     0.00096     0.00000     0.07858     0.00370
     3.04400     0.72790    22.71000     0.34357     4.88306     2.31610     0.42735     0.00096     0.00000     0.07604     0.00371
     3.04400     0.72050    22.71000     0.34007     4.90043     2.32350     0.42354     0.00096     0.00000     0.07673     0.00375
     3.04400     0.71310    22.71000     0.33658     4.91781     2.33090     0.41971     0.00095     0.00000     0.07449     0.00375
     3.04400     0.70570    22.71000     0.33309     4.93519     2.33830     0.41587     0.00095     0.00000     0.07054     0.00367
     3.04400     0.69840    22.71000     0.32964     4.95234     2.34560     0.41206     0.00095     0.00000     0.07709     0.00382
     3.04400     0.69100    22.71000     0.32615     4.96972     2.35300     0.40819     0.00095     0.00000     0.07382     0.00383
     3.04400     0.68360    22.71000     0.32266     4.98710     2.36040     0.40431     0.00095     0.00000     0.07668     0.00381
     3.04400     0.67530    22.71000     0.31874     5.00659     2.36870     0.39993     0.00094     0.00000     0.07332     0.00314
     3.04400     0.66900    22.71000     0.31577     5.02138     2.37500     0.39660     0.00094     0.00000     0.07478     0.00317
     3.04400     0.66280    22.71000     0.31284     5.03595     2.38120     0.39331     0.00094     0.00000     0.07325     0.00314
     3.04400     0.65650    22.71000     0.30987     5.05074     2.38750     0.38996     0.00094     0.00000     0.07570     0.00319
     3.04400     0.65020    22.71000     0.30689     5.06554     2.39380     0.38660     0.00094     0.00000     0.07424     0.00317
     3.04400     0.64390    22.71000     0.30392     5.08033     2.40010     0.38323     0.00093     0.00000     0.07389     0.00317
     3.04400     0.63760    22.71000     0.30095     5.09513     2.40640     0.37985     0.00093     0.00000     0.07374     0.00322
     3.04400     0.63130    22.71000     0.29797     5.10992     2.41270     0.37646     0.00093     0.00000     0.07475     0.00325
     3.04400     0.62510    22.71000     0.29505     5.12449     2.41890     0.37311     0.00093     0.00000     0.07435     0.00329
     3.04400     0.61880    22.71000     0.29207     5.13928     2.42520     0.36971     0.00093     0.00000     0.07602     0.00339
     3.04400     0.61250    22.71000     0.28910     5.15408     2.43150     0.36629     0.00092     0.00000     0.07461     0.00338
     3.04400     0.60620    22.71000     0.28612     5.16887     2.43780     0.36286     0.00092     0.00000     0.07139     0.00336
     3.04400     0.59990    22.71000     0.28315     5.18367     2.44410     0.35942     0.00092     0.00000     0.07007     0.00335
     3.04400     0.59360    22.71000     0.28018     5.19846     2.45040     0.35598     0.00092     0.00000     0.07421     0.00346
     3.04400     0.58740    22.71000     0.27725     5.21303     2.45660     0.35258     0.00092     0.00000     0.07464     0.00349
     3.04400     0.58110    22.71000     0.27428     5.22782     2.46290     0.34911     0.00092     0.00000     0.07616     0.00350
     3.04400     0.57390    22.71000     0.27088     5.24473     2.47010     0.34514     0.00091     0.00000     0.07107     0.00355
     3.04400     0.56860    22.71000     0.26838     5.25718     2.47540     0.34221     0.00091     0.00000     0.07465     0.00361
     3.04400     0.56330    22.71000     0.26588     5.26963     2.48070     0.33927     0.00091     0.00000     0.07010     0.00354
     3.04400     0.55790    22.71000     0.26333     5.28231     2.48610     0.33627     0.00091     0.00000     0.07493     0.00368
     3.04400     0.55260    22.71000     0.26083     5.29476     2.49140     0.33332     0.00091     0.00000     0.07477     0.00371
     3.04400     0.54720    22.71000     0.25828     5.30744     2.49680     0.33031     0.00091     0.00000     0.07487     0.00376
     3.04400     0.54190    22.71000     0.25578     5.31988     2.50210     0.32735     0.00090     0.00000     0.07395     0.00377
     3.04400     0.53660    22.71000     0.25327     5.33233     2.50740     0.32438     0.00090     0.00000     0.07587     0.00381
     3.04400     0.53120    22.71000     0.25073     5.34501     2.51280     0.32135     0.00090     0.00000     0.07469     0.00392
     3.04400     0.52590    22.71000     0.24822     5.35746     2.51810     0.31837     0.00090     0.00000     0.07379     0.00390
     3.04400     0.52060    22.71000     0.24572     5.36991     2.52340     0.31538     0.00090     0.00000     0.07754     0.00407
     3.04400     0.51520    22.71000     0.24317     5.38259     2.52880     0.31233     0.00090     0.00000     0.07519     0.00408
     3.04400     0.50990    22.71000     0.24067     5.39504     2.53410     0.30934     0.00090     0.00000     0.07413     0.00402
     3.04400     0.50450    22.71000     0.23812     5.40772     2.53950     0.30627     0.00089     0.00000     0.07385     0.00406
     3.04400     0.49920    22.71000     0.23562     5.42017     2.54480     0.30326     0.00089     0.00000     0.07289     0.00408
     3.04400     0.49390    22.71000     0.23312     5.43261     2.55010     0.30025     0.00089     0.00000     0.07660     0.00413
     3.04400     0.48780    22.71000     0.23024     5.44694     2.55620     0.29677     0.00089     0.00000     0.07702     0.00323
     3.04400     0.48330    22.71000     0.22812     5.45751     2.56070     0.29420     0.00089     0.00000     0.07685     0.00326
     3.04400     0.47880    22.71000     0.22599     5.46808     2.56520     0.29162     0.00089     0.00000     0.07523     0.00322
     3.04400     0.47420    22.71000     0.22382     5.47888     2.56980     0.28898     0.00089     0.00000     0.07604     0.00329
     3.04400     0.46970    22.71000     0.22170     5.48945     2.57430     0.28640     0.00089     0.00000     0.07719     0.00331
     3.04400     0.46510    22.71000     0.21953     5.50025     2.57890     0.28375     0.00088     0.00000     0.07472     0.00332
     3.04400     0.46060    22.71000     0.21740     5.51082     2.58340     0.28116     0.00088     0.00000     0.07634     0.00338
     3.04400     0.45610    22.71000     0.21528     5.52139     2.58790     0.27856     0.00088     0.00000     0.07549     0.00345
     3.04400     0.45150    22.71000     0.21311     5.53219     2.59250     0.27591     0.00088     0.00000     0.07606     0.00351
     3.04400     0.44700    22.71000     0.21098     5.54276     2.59700     0.27330     0.00088     0.00000     0.07717     0.00355
     3.04400     0.44250    22.71000     0.20886     5.55333     2.60150     0.27069     0.00088     0.00000     0.07560     0.00358
     3.04400     0.43790    22.71000     0.20669     5.56413     2.60610     0.26802     0.00088     0.00000     0.07574     0.00367
     3.04400     0.43340    22.71000     0.20456     5.57470     2.61060     0.26541     0.00088     0.00000     0.07373     0.00363
     3.04400     0.42880    22.71000     0.20239     5.58550     2.61520     0.26273     0.00088     0.00000     0.07737     0.00378
     3.04400     0.42430    22.71000     0.20027     5.59607     2.61970     0.26011     0.00087     0.00000     0.07786     0.00378
     3.04400     0.41980    22.71000     0.19814     5.60664     2.62420     0.25748     0.00087     0.00000     0.07890     0.00378
     3.04400     2.20610    24.89000     1.24748     1.20523     0.83790     0.86789     0.00028     0.00000     0.00195     0.00108
     3.04400     2.18390    24.89000     1.23493     1.25945     0.86010     0.86523     0.00032     0.00000     0.00813     0.00053
     3.04400     2.16180    24.89000     1.22243     1.31342     0.88220     0.86250     0.00036     0.00000     0.01601     0.00054
     3.04400     2.13960    24.89000     1.20988     1.36763     0.90440     0.85965     0.00040     0.00000     0.03013     0.00075
     3.04400     2.11740    24.89000     1.19732     1.42184     0.92660     0.85671     0.00043     0.00000     0.04725     0.00102
     3.04400     2.09530    24.89000     1.18482     1.47581     0.94870     0.85368     0.00047     0.00000     0.05757     0.00124
     3.04400     2.07310    24.89000     1.17227     1.53002     0.97090     0.85053     0.00050     0.00000     0.05548     0.00120
     3.04400     2.05090    24.89000     1.15972     1.58423     0.99310     0.84728     0.00053     0.00000     0.04863     0.00106
     3.04400     2.02590    24.90000     1.14649     1.64438     1.01810     0.84344     0.00056     0.00000     0.04033     0.00085
     3.04400     2.00710    24.90000     1.13585     1.69030     1.03690     0.84050     0.00058     0.00000     0.03643     0.00077
     3.04400     1.98830    24.90000     1.12521     1.73622     1.05570     0.83749     0.00060     0.00000     0.03511     0.00075
     3.04400     1.96940    24.90000     1.11451     1.78238     1.07460     0.83438     0.00062     0.00000     0.03480     0.00074
     3.04400     1.95060    24.90000     1.10387     1.82830     1.09340     0.83121     0.00064     0.00000     0.03461     0.00074
     3.04400     1.93170    24.90000     1.09318     1.87446     1.11230     0.82794     0.00066     0.00000     0.03481     0.00074
     3.04400     1.91290    24.90000     1.08254     1.92038     1.13110     0.82461     0.00068     0.00000     0.03574     0.00076
     3.04400     1.89400    24.90000     1.07184     1.96654     1.15000     0.82117     0.00069     0.00000     0.03678     0.00078
     3.04400     1.87520    24.90000     1.06120     2.01246     1.16880     0.81767     0.00071     0.00000     0.03919     0.00083
     3.04400     1.85630    24.90000     1.05051     2.05862     1.18770     0.81407     0.00072     0.00000     0.04092     0.00086
     3.04400     1.83750    24.90000     1.03987     2.10454     1.20650     0.81040     0.00074     0.00000     0.04596     0.00096
     3.04400     1.81860    24.90000     1.02917     2.15070     1.22540     0.80663     0.00075     0.00000     0.05242     0.00109
     3.04400     1.79980    24.90000     1.01853     2.19662     1.24420     0.80279     0.00076     0.00000     0.06455     0.00133
     3.04400     1.78090    24.90000     1.00784     2.24278     1.26310     0.79884     0.00077     0.00000     0.06891     0.00142
     3.04400     1.76210    24.90000     0.99720     2.28870     1.28190     0.79483     0.00079     0.00000     0.07007     0.00145
     3.04400     1.74330    24.90000     0.98656     2.33462     1.30070     0.79072     0.00079     0.00000     0.06670     0.00138
     3.04400     1.72220    24.90000     0.97462     2.38615     1.32180     0.78601     0.00080     0.00000     0.05691     0.00120
     3.04400     1.70610    24.90000     0.96551     2.42548     1.33790     0.78234     0.00081     0.00000     0.05395     0.00114
     3.04400     1.69010    24.90000     0.95645     2.46456     1.35390     0.77862     0.00082     0.00000     0.05178     0.00110
     3.04400     1.67410    24.90000     0.94740     2.50364     1.36990     0.77484     0.00082     0.00000     0.05176     0.00110
     3.04400     1.65810    24.90000     0.93834     2.54272     1.38590     0.77099     0.00083     0.00000     0.05227     0.00111
     3.04400     1.64200    24.90000     0.92923     2.58204     1.40200     0.76705     0.00084     0.00000     0.05289     0.00112
     3.04400     1.62600    24.90000     0.92018     2.62112     1.41800     0.76306     0.00084     0.00000     0.05465     0.00115
     3.04400     1.61000    24.90000     0.91112     2.66020     1.43400     0.75901     0.00084     0.00000     0.05515     0.00116
     3.04400     1.59400    24.90000     0.90207     2.69928     1.45000     0.75489     0.00085     0.00000     0.05992     0.00126
     3.04400     1.57800    24.90000     0.89301     2.73836     1.46600     0.75069     0.00085     0.00000     0.06348     0.00133
     3.04400     1.56200    24.90000     0.88396     2.77744     1.48200     0.74643     0.00086     0.00000     0.06832     0.00143
     3.04400     1.54590    24.90000     0.87485     2.81676     1.49810     0.74207     0.00086     0.00000     0.07099     0.00148
     3.04400     1.52990    24.90000     0.86579     2.85584     1.51410     0.73767     0.00086     0.00000     0.07342     0.00153
     3.04400     1.51390    24.90000     0.85674     2.89492     1.53010     0.73320     0.00086     0.00000     0.07189     0.00150
     3.04400     1.49790    24.90000     0.84768     2.93400     1.54610     0.72865     0.00087     0.00000     0.07075     0.00148
     3.04400     1.48190    24.90000     0.83863     2.97308     1.56210     0.72404     0.00087     0.00000     0.06915     0.00145
     3.04400     1.46370    24.90000     0.82833     3.01753     1.58030     0.71870     0.00087     0.00000     0.06632     0.00144
     3.04400     1.45010    24.90000     0.82063     3.05075     1.59390     0.71465     0.00087     0.00000     0.06276     0.00137
     3.04400     1.43650    24.90000     0.81294     3.08397     1.60750     0.71055     0.00087     0.00000     0.05945     0.00131
     3.04400     1.42290    24.90000     0.80524     3.11718     1.62110     0.70639     0.00087     0.00000     0.06035     0.00132
     3.04400     1.40930    24.90000     0.79754     3.15040     1.63470     0.70219     0.00087     0.00000     0.05899     0.00130
     3.04400     1.39560    24.90000     0.78979     3.18386     1.64840     0.69789     0.00087     0.00000     0.05759     0.00127
     3.04400     1.38200    24.90000     0.78209     3.21708     1.66200     0.69358     0.00087     0.00000     0.05838     0.00129
     3.04400     1.36840    24.90000     0.77440     3.25030     1.67560     0.68921     0.00087     0.00000     0.05762     0.00127
     3.04400     1.35480    24.90000     0.76670     3.28351     1.68920     0.68479     0.00087     0.00000     0.05725     0.00127
     3.04400     1.34120    24.90000     0.75901     3.31673     1.70280     0.68032     0.00087     0.00000     0.05791     0.00128
     3.04400     1.32760    24.90000     0.75131     3.34995     1.71640     0.67579     0.00087     0.00000     0.05799     0.00129
     3.04400     1.31390    24.90000     0.74356     3.38341     1.73010     0.67117     0.00087     0.00000     0.05838     0.00130
     3.04400     1.30030    24.90000     0.73586     3.41663     1.74370     0.66654     0.00087     0.00000     0.05910     0.00131
     3.04400     1.28670    24.90000     0.72816     3.44985     1.75730     0.66185     0.00087     0.00000     0.05909     0.00132
     3.04400     1.27310    24.90000     0.72047     3.48306     1.77090     0.65710     0.00087     0.00000     0.05961     0.00133
     3.04400     1.25950    24.90000     0.71277     3.51628     1.78450     0.65230     0.00087     0.00000     0.05944     0.00132
     3.04400     1.24420    24.90000     0.70411     3.55365     1.79980     0.64684     0.00087     0.00000     0.06077     0.00140
     3.04400     1.23260    24.90000     0.69755     3.58198     1.81140     0.64265     0.00086     0.00000     0.05995     0.00139
     3.04400     1.22110    24.90000     0.69104     3.61007     1.82290     0.63846     0.00086     0.00000     0.06047     0.00140
     3.04400     1.20950    24.90000     0.68447     3.63840     1.83450     0.63419     0.00086     0.00000     0.06051     0.00140
     3.04400     1.19790    24.90000     0.67791     3.66674     1.84610     0.62989     0.00086     0.00000     0.06101     0.00141
     3.04400     1.18630    24.90000     0.67135     3.69507     1.85770     0.62554     0.00086     0.00000     0.05995     0.00139
     3.04400     1.17480    24.90000     0.66484     3.72316     1.86920     0.62119     0.00086     0.00000     0.05988     0.00139
     3.04400     1.16320    24.90000     0.65827     3.75149     1.88080     0.61677     0.00086     0.00000     0.05926     0.00138
     3.04400     1.15160    24.90000     0.65171     3.77982     1.89240     0.61230     0.00086     0.00000     0.06125     0.00142
     3.04400     1.14000    24.90000     0.64514     3.80815     1.90400     0.60780     0.00085     0.00000     0.06102     0.00142
     3.04400     1.12850    24.90000     0.63864     3.83624     1.91550     0.60329     0.00085     0.00000     0.06005     0.00140
     3.04400     1.11690    24.90000     0.63207     3.86458     1.92710     0.59871     0.00085     0.00000     0.05934     0.00139
     3.04400     1.10530    24.90000     0.62551     3.89291     1.93870     0.59408     0.00085     0.00000     0.05883     0.00138
     3.04400     1.09370    24.90000     0.61894     3.92124     1.95030     0.58942     0.00085     0.00000     0.05907     0.00139
     3.04400     1.08220    24.90000     0.61243     3.94933     1.96180     0.58476     0.00085     0.00000     0.05828     0.00138
     3.04400     1.07060    24.90000     0.60587     3.97766     1.97340     0.58001     0.00084     0.00000     0.05938     0.00140
     3.04400     1.05760    24.90000     0.59851     4.00941     1.98640     0.57465     0.00084     0.00000     0.05834     0.00147
     3.04400     1.04770    24.90000     0.59291     4.03359     1.99630     0.57054     0.00084     0.00000     0.05779     0.00146
     3.04400     1.03790    24.90000     0.58736     4.05753     2.00610     0.56643     0.00084     0.00000     0.05756     0.00146
     3.04400     1.02810    24.90000     0.58182     4.08147     2.01590     0.56230     0.00084     0.00000     0.05872     0.00147
     3.04400     1.01820    24.90000     0.57621     4.10565     2.02580     0.55810     0.00083     0.00000     0.05919     0.00149
     3.04400     1.00840    24.90000     0.57067     4.12958     2.03560     0.55391     0.00083     0.00000     0.05754     0.00145
     3.04400     0.99860    24.90000     0.56512     4.15352     2.04540     0.54969     0.00083     0.00000     0.05834     0.00147
     3.04400     0.98870    24.90000     0.55952     4.17770     2.05530     0.54541     0.00083     0.00000     0.05916     0.00149
     3.04400     0.97890    24.90000     0.55397     4.20164     2.06510     0.54114     0.00083     0.00000     0.05870     0.00149
     3.04400     0.96900    24.90000     0.54837     4.22582     2.07500     0.53679     0.00083     0.00000     0.05917     0.00150
     3.04400     0.95920    24.90000     0.54283     4.24975     2.08480     0.53246     0.00082     0.00000     0.06027     0.00153
     3.04400     0.94940    24.90000     0.53728     4.27369     2.09460     0.52811     0.00082     0.00000     0.05771     0.00149
     3.04400     0.93950    24.90000     0.53168     4.29787     2.10450     0.52368     0.00082     0.00000     0.05793     0.00150
     3.04400     0.92970    24.90000     0.52613     4.32180     2.11430     0.51927     0.00082     0.00000     0.05766     0.00151
     3.04400     0.91990    24.90000     0.52059     4.34574     2.12410     0.51483     0.00082     0.00000     0.05714     0.00149
     3.04400     0.91000    24.90000     0.51498     4.36992     2.13400     0.51032     0.00081     0.00000     0.05950     0.00154
     3.04400     0.89890    24.90000     0.50870     4.39703     2.14510     0.50523     0.00081     0.00000     0.05769     0.00156
     3.04400     0.89060    24.90000     0.50400     4.41730     2.15340     0.50140     0.00081     0.00000     0.05756     0.00156
     3.04400     0.88220    24.90000     0.49925     4.43782     2.16180     0.49750     0.00081     0.00000     0.05894     0.00159
     3.04400     0.87380    24.90000     0.49450     4.45834     2.17020     0.49359     0.00081     0.00000     0.06026     0.00161
     3.04400     0.86550    24.90000     0.48980     4.47861     2.17850     0.48970     0.00081     0.00000     0.05876     0.00159
     3.04400     0.85710    24.90000     0.48505     4.49913     2.18690     0.48574     0.00080     0.00000     0.05760     0.00157
     3.04400     0.84870    24.90000     0.48029     4.51964     2.19530     0.48177     0.00080     0.00000     0.05800     0.00158
     3.04400     0.84040    24.90000     0.47560     4.53992     2.20360     0.47782     0.00080     0.00000     0.05808     0.00159
     3.04400     0.83200    24.90000     0.47084     4.56043     2.21200     0.47381     0.00080     0.00000     0.05834     0.00160
     3.04400     0.82370    24.90000     0.46614     4.58071     2.22030     0.46982     0.00080     0.00000     0.06012     0.00165
     3.04400     0.81530    24.90000     0.46139     4.60122     2.22870     0.46577     0.00080     0.00000     0.05828     0.00162
     3.04400     0.80690    24.90000     0.45664     4.62174     2.23710     0.46170     0.00079     0.00000     0.05910     0.00165
     3.04400     0.79860    24.90000     0.45194     4.64201     2.24540     0.45766     0.00079     0.00000     0.05866     0.00164
     3.04400     0.79020    24.90000     0.44719     4.66253     2.25380     0.45355     0.00079     0.00000     0.05804     0.00164
     3.04400     0.78180    24.90000     0.44243     4.68304     2.26220     0.44942     0.00079     0.00000     0.05710     0.00162
     3.04400     0.77350    24.90000     0.43774     4.70332     2.27050     0.44532     0.00079     0.00000     0.06035     0.00167
     3.04400     0.76410    24.90000     0.43242     4.72628     2.27990     0.44066     0.00079     0.00000     0.05708     0.00171
     3.04400     0.75700    24.90000     0.42840     4.74362     2.28700     0.43712     0.00078     0.00000     0.05756     0.00171
     3.04400     0.74990    24.90000     0.42438     4.76096     2.29410     0.43357     0.00078     0.00000     0.05523     0.00167
     3.04400     0.74280    24.90000     0.42036     4.77830     2.30120     0.43000     0.00078     0.00000     0.05565     0.00168
     3.04400     0.73570    24.90000     0.41634     4.79564     2.30830     0.42642     0.00078     0.00000     0.05665     0.00170
     3.04400     0.72860    24.90000     0.41233     4.81298     2.31540     0.42283     0.00078     0.00000     0.05806     0.00174
     3.04400     0.72150    24.90000     0.40831     4.83032     2.32250     0.41923     0.00078     0.00000     0.05639     0.00172
     3.04400     0.71440    24.90000     0.40429     4.84767     2.32960     0.41561     0.00078     0.00000     0.05781     0.00177
     3.04400     0.70720    24.90000     0.40022     4.86525     2.33680     0.41193     0.00077     0.00000     0.05791     0.00177
     3.04400     0.70010    24.90000     0.39620     4.88259     2.34390     0.40828     0.00077     0.00000     0.05671     0.00176
     3.04400     0.69300    24.90000     0.39218     4.89993     2.35100     0.40463     0.00077     0.00000     0.05544     0.00175
     3.04400     0.68590    24.90000     0.38816     4.91728     2.35810     0.40096     0.00077     0.00000     0.05632     0.00177
     3.04400     0.67880    24.90000     0.38414     4.93462     2.36520     0.39727     0.00077     0.00000     0.05501     0.00177
     3.04400     0.67170    24.90000     0.38013     4.95196     2.37230     0.39358     0.00077     0.00000     0.05444     0.00177
     3.04400     0.66460    24.90000     0.37611     4.96930     2.37940     0.38987     0.00077     0.00000     0.05703     0.00181
     3.04400     0.65750    24.90000     0.37209     4.98664     2.38650     0.38615     0.00077     0.00000     0.05908     0.00183
     3.04400     0.64950    24.90000     0.36756     5.00618     2.39450     0.38194     0.00076     0.00000     0.05554     0.00187
     3.04400     0.64350    24.90000     0.36417     5.02084     2.40050     0.37878     0.00076     0.00000     0.05638     0.00188
     3.04400     0.63740    24.90000     0.36071     5.03574     2.40660     0.37555     0.00076     0.00000     0.05497     0.00184
     3.04400     0.63140    24.90000     0.35732     5.05039     2.41260     0.37237     0.00076     0.00000     0.05768     0.00192
     3.04400     0.62530    24.90000     0.35387     5.06529     2.41870     0.36912     0.00076     0.00000     0.05743     0.00191
     3.04400     0.61930    24.90000     0.35047     5.07994     2.42470     0.36592     0.00076     0.00000     0.05838     0.00194
     3.04400     0.61330    24.90000     0.34708     5.09460     2.43070     0.36271     0.00076     0.00000     0.05669     0.00193
     3.04400     0.60720    24.90000     0.34362     5.10950     2.43680     0.35944     0.00076     0.00000     0.05775     0.00197
     3.04400     0.60120    24.90000     0.34023     5.12415     2.44280     0.35621     0.00075     0.00000     0.05899     0.00200
     3.04400     0.59510    24.90000     0.33678     5.13905     2.44890     0.35292     0.00075     0.00000     0.05808     0.00202
     3.04400     0.58910    24.90000     0.33338     5.15371     2.45490     0.34968     0.00075     0.00000     0.05855     0.00205
     3.04400     0.58310    24.90000     0.32999     5.16836     2.46090     0.34643     0.00075     0.00000     0.05632     0.00201
     3.04400     0.57700    24.90000     0.32653     5.18326     2.46700     0.34311     0.00075     0.00000     0.05688     0.00205
     3.04400     0.57100    24.90000     0.32314     5.19791     2.47300     0.33984     0.00075     0.00000     0.05659     0.00206
     3.04400     0.56490    24.90000     0.31969     5.21281     2.47910     0.33651     0.00075     0.00000     0.05729     0.00206
     3.04400     0.55890    24.90000     0.31629     5.22747     2.48510     0.33323     0.00075     0.00000     0.06091     0.00210
     3.04400     0.55200    24.90000     0.31239     5.24432     2.49200     0.32944     0.00074     0.00000     0.05701     0.00209
     3.04400     0.54690    24.90000     0.30950     5.25678     2.49710     0.32663     0.00074     0.00000     0.05741     0.00211
     3.04400     0.54170    24.90000     0.30656     5.26948     2.50230     0.32376     0.00074     0.00000     0.05650     0.00211
     3.04400     0.53660    24.90000     0.30367     5.28194     2.50740     0.32094     0.00074     0.00000     0.05662     0.00210
     3.04400     0.53150    24.90000     0.30078     5.29439     2.51250     0.31812     0.00074     0.00000     0.05715     0.00212
     3.04400     0.52630    24.90000     0.29784     5.30709     2.51770     0.31523     0.00074     0.00000     0.05874     0.00218
     3.04400     0.52120    24.90000     0.29495     5.31955     2.52280     0.31240     0.00074     0.00000     0.05658     0.00217
     3.04400     0.51610    24.90000     0.29207     5.33201     2.52790     0.30956     0.00074     0.00000     0.05850     0.00224
     3.04400     0.51090    24.90000     0.28913     5.34471     2.53310     0.30665     0.00074     0.00000     0.05880     0.00224
     3.04400     0.50580    24.90000     0.28624     5.35716     2.53820     0.30380     0.00074     0.00000     0.05814     0.00225
     3.04400     0.50070    24.90000     0.28335     5.36962     2.54330     0.30094     0.00073     0.00000     0.05752     0.00229
     3.04400     0.49550    24.90000     0.28041     5.38232     2.54850     0.29802     0.00073     0.00000     0.05772     0.00234
     3.04400     0.49040    24.90000     0.27752     5.39478     2.55360     0.29515     0.00073     0.00000     0.05794     0.00233
     3.04400     0.48530    24.90000     0.27464     5.40723     2.55870     0.29228     0.00073     0.00000     0.05748     0.00235
     3.04400     0.48310    24.90000     0.27339     5.41261     2.56090     0.29103     0.00073     0.00000     0.05873     0.00237
     3.04400     0.48010    24.90000     0.27170     5.41993     2.56390     0.28934     0.00073     0.00000     0.05939     0.00239
     3.04400     0.47860    24.90000     0.27085     5.42360     2.56540     0.28849     0.00073     0.00000     0.05731     0.00235
     3.04400     0.47500    24.90000     0.26881     5.43239     2.56900     0.28645     0.00073     0.00000     0.06186     0.00240
     3.04400     0.47410    24.90000     0.26830     5.43459     2.56990     0.28594     0.00073     0.00000     0.05915     0.00240
     3.04400     0.46960    24.90000     0.26575     5.44558     2.57440     0.28339     0.00073     0.00000     0.05679     0.00239
     3.04400     0.46510    24.90000     0.26321     5.45657     2.57890     0.28084     0.00073     0.00000     0.05651     0.00241
     3.04400     0.46060    24.90000     0.26066     5.46756     2.58340     0.27828     0.00073     0.00000     0.05940     0.00250
     3.04400     0.45610    24.90000     0.25811     5.47855     2.58790     0.27571     0.00073     0.00000     0.05851     0.00251
     3.04400     0.45160    24.90000     0.25557     5.48954     2.59240     0.27315     0.00073     0.00000     0.05774     0.00253
     3.04400     0.44720    24.90000     0.25308     5.50029     2.59680     0.27063     0.00072     0.00000     0.06096     0.00261
     3.04400     0.44270    24.90000     0.25053     5.51128     2.60130     0.26805     0.00072     0.00000     0.06123     0.00266
     3.04400     0.43820    24.90000     0.24798     5.52227     2.60580     0.26548     0.00072     0.00000     0.05834     0.00265
     3.04400     0.43370    24.90000     0.24544     5.53326     2.61030     0.26289     0.00072     0.00000     0.05918     0.00274
     3.04400     0.42920    24.90000     0.24289     5.54426     2.61480     0.26030     0.00072     0.00000     0.05744     0.00269
     3.04400     0.42470    24.90000     0.24034     5.55525     2.61930     0.25771     0.00072     0.00000     0.05832     0.00271
     3.04400     0.42020    24.90000     0.23780     5.56624     2.62380     0.25512     0.00072     0.00000     0.05883     0.00272
     3.04400     0.41570    24.90000     0.23525     5.57723     2.62830     0.25252     0.00072     0.00000     0.06342     0.00279
     3.04400     1.91460    32.30000     1.80364     1.19609     1.12940     0.77741     0.00010     0.00000     0.00019     0.00019
     3.04400     1.89530    32.30000     1.78546     1.25049     1.14870     0.77420     0.00011     0.00000     0.00122     0.00008
     3.04400     1.87610    32.30000     1.76737     1.30460     1.16790     0.77092     0.00013     0.00000     0.00260     0.00009
     3.04400     1.85690    32.30000     1.74928     1.35872     1.18710     0.76756     0.00014     0.00000     0.00492     0.00012
     3.04400     1.83760    32.30000     1.73110     1.41312     1.20640     0.76411     0.00016     0.00000     0.00811     0.00018
     3.04400     1.81840    32.30000     1.71301     1.46724     1.22560     0.76059     0.00017     0.00000     0.01008     0.00022
     3.04400     1.79910    32.30000     1.69483     1.52163     1.24490     0.75696     0.00018     0.00000     0.01040     0.00022
     3.04400     1.77990    32.30000     1.67674     1.57575     1.26410     0.75327     0.00019     0.00000     0.00978     0.00021
     3.04400     1.07980    32.30000     1.01722     3.54905     1.96420     0.55438     0.00041     0.00000     0.02169     0.00052
     3.04400     1.06980    32.30000     1.00780     3.57723     1.97420     0.55057     0.00041     0.00000     0.02253     0.00053
     3.04400     1.05970    32.30000     0.99828     3.60570     1.98430     0.54668     0.00041     0.00000     0.02275     0.00053
     3.04400     1.04970    32.30000     0.98886     3.63389     1.99430     0.54281     0.00041     0.00000     0.02260     0.00053
     3.04400     1.03970    32.30000     0.97944     3.66207     2.00430     0.53891     0.00041     0.00000     0.02262     0.00053
     3.04400     1.02960    32.30000     0.96993     3.69054     2.01440     0.53494     0.00042     0.00000     0.02263     0.00054
     3.04400     1.01960    32.30000     0.96051     3.71873     2.02440     0.53098     0.00042     0.00000     0.02285     0.00054
     3.04400     1.00950    32.30000     0.95099     3.74719     2.03450     0.52696     0.00042     0.00000     0.02317     0.00055
     3.04400     0.99950    32.30000     0.94157     3.77538     2.04450     0.52294     0.00042     0.00000     0.02294     0.00054
     3.04400     0.98940    32.30000     0.93206     3.80385     2.05460     0.51886     0.00042     0.00000     0.02324     0.00055
     3.04400     0.97940    32.30000     0.92264     3.83203     2.06460     0.51479     0.00042     0.00000     0.02365     0.00056
     3.04400     0.96930    32.30000     0.91312     3.86050     2.07470     0.51065     0.00042     0.00000     0.02306     0.00056
     3.04400     0.95930    32.30000     0.90370     3.88869     2.08470     0.50652     0.00042     0.00000     0.02256     0.00055
     3.04400     0.94930    32.30000     0.89428     3.91687     2.09470     0.50236     0.00042     0.00000     0.02346     0.00056
     3.04400     0.93920    32.30000     0.88477     3.94534     2.10480     0.49814     0.00042     0.00000     0.02351     0.00056
     3.04400     0.92920    32.30000     0.87535     3.97353     2.11480     0.49392     0.00042     0.00000     0.02347     0.00056
     3.04400     0.91780    32.30000     0.86461     4.00566     2.12620     0.48909     0.00042     0.00000     0.02334     0.00060
     3.04400     0.90930    32.30000     0.85660     4.02962     2.13470     0.48546     0.00042     0.00000     0.02334     0.00060
     3.04400     0.90080    32.30000     0.84859     4.05357     2.14320     0.48181     0.00042     0.00000     0.02317     0.00060
     3.04400     0.89220    32.30000     0.84049     4.07781     2.15180     0.47809     0.00042     0.00000     0.02330     0.00060
     3.04400     0.88370    32.30000     0.83248     4.10177     2.16030     0.47440     0.00042     0.00000     0.02370     0.00061
     3.04400     0.87510    32.30000     0.82438     4.12601     2.16890     0.47065     0.00042     0.00000     0.02355     0.00061
     3.04400     0.86660    32.30000     0.81638     4.14997     2.17740     0.46692     0.00042     0.00000     0.02400     0.00062
     3.04400     0.85810    32.30000     0.80837     4.17393     2.18590     0.46317     0.00042     0.00000     0.02360     0.00061
     3.04400     0.84950    32.30000     0.80027     4.19817     2.19450     0.45935     0.00042     0.00000     0.02417     0.00063
     3.04400     0.84100    32.30000     0.79226     4.22213     2.20300     0.45556     0.00042     0.00000     0.02395     0.00062
     3.04400     0.83250    32.30000     0.78425     4.24608     2.21150     0.45175     0.00042     0.00000     0.02410     0.00063
     3.04400     0.82390    32.30000     0.77615     4.27032     2.22010     0.44788     0.00042     0.00000     0.02398     0.00064
     3.04400     0.81540    32.30000     0.76814     4.29428     2.22860     0.44403     0.00042     0.00000     0.02387     0.00064
     3.04400     0.80680    32.30000     0.76004     4.31852     2.23720     0.44011     0.00042     0.00000     0.02424     0.00065
     3.04400     0.79830    32.30000     0.75203     4.34248     2.24570     0.43622     0.00042     0.00000     0.02370     0.00063
     3.04400     0.78980    32.30000     0.74403     4.36644     2.25420     0.43231     0.00042     0.00000     0.02488     0.00065
     3.04400     0.78020    32.30000     0.73498     4.39350     2.26380     0.42788     0.00042     0.00000     0.02503     0.00071
     3.04400     0.77300    32.30000     0.72820     4.41379     2.27100     0.42453     0.00042     0.00000     0.02591     0.00073
     3.04400     0.76570    32.30000     0.72132     4.43437     2.27830     0.42113     0.00042     0.00000     0.02523     0.00072
     3.04400     0.75850    32.30000     0.71454     4.45466     2.28550     0.41775     0.00042     0.00000     0.02567     0.00073
     3.04400     0.75120    32.30000     0.70766     4.47524     2.29280     0.41432     0.00042     0.00000     0.02522     0.00072
     3.04400     0.74390    32.30000     0.70079     4.49581     2.30010     0.41087     0.00042     0.00000     0.02532     0.00073
     3.04400     0.73670    32.30000     0.69400     4.51610     2.30730     0.40746     0.00042     0.00000     0.02642     0.00075
     3.04400     0.72940    32.30000     0.68713     4.53668     2.31460     0.40399     0.00042     0.00000     0.02576     0.00074
     3.04400     0.72220    32.30000     0.68034     4.55697     2.32180     0.40054     0.00042     0.00000     0.02633     0.00075
     3.04400     0.71490    32.30000     0.67347     4.57755     2.32910     0.39704     0.00042     0.00000     0.02597     0.00076
     3.04400     0.70770    32.30000     0.66668     4.59784     2.33630     0.39357     0.00042     0.00000     0.02630     0.00077
     3.04400     0.70040    32.30000     0.65981     4.61842     2.34360     0.39004     0.00042     0.00000     0.02556     0.00077
     3.04400     0.69310    32.30000     0.65293     4.63900     2.35090     0.38650     0.00042     0.00000     0.02663     0.00079
     3.04400     0.68590    32.30000     0.64615     4.65929     2.35810     0.38299     0.00042     0.00000     0.02656     0.00079
     3.04400     0.67860    32.30000     0.63927     4.67986     2.36540     0.37942     0.00042     0.00000     0.02684     0.00079
     3.04400     0.67140    32.30000     0.63249     4.70016     2.37260     0.37589     0.00042     0.00000     0.02792     0.00081
     3.04400     0.66320    32.30000     0.62476     4.72327     2.38080     0.37184     0.00042     0.00000     0.02643     0.00077
     3.04400     0.65700    32.30000     0.61892     4.74075     2.38700     0.36878     0.00042     0.00000     0.02556     0.00075
     3.04400     0.65080    32.30000     0.61308     4.75822     2.39320     0.36570     0.00042     0.00000     0.02505     0.00074
     3.04400     0.64470    32.30000     0.60734     4.77542     2.39930     0.36266     0.00042     0.00000     0.02663     0.00077
     3.04400     0.63850    32.30000     0.60150     4.79289     2.40550     0.35957     0.00042     0.00000     0.02618     0.00077
     3.04400     0.63230    32.30000     0.59565     4.81037     2.41170     0.35646     0.00042     0.00000     0.02664     0.00078
     3.04400     0.62620    32.30000     0.58991     4.82756     2.41780     0.35340     0.00042     0.00000     0.02626     0.00078
     3.04400     0.62000    32.30000     0.58407     4.84503     2.42400     0.35027     0.00042     0.00000     0.02642     0.00079
     3.04400     0.61380    32.30000     0.57823     4.86251     2.43020     0.34714     0.00042     0.00000     0.02621     0.00079
     3.04400     0.60760    32.30000     0.57239     4.87998     2.43640     0.34399     0.00042     0.00000     0.02706     0.00082
     3.04400     0.60150    32.30000     0.56664     4.89718     2.44250     0.34089     0.00042     0.00000     0.02742     0.00083
     3.04400     0.59530    32.30000     0.56080     4.91465     2.44870     0.33773     0.00042     0.00000     0.02621     0.00081
     3.04400     0.58910    32.30000     0.55496     4.93213     2.45490     0.33456     0.00042     0.00000     0.02648     0.00082
     3.04400     0.58300    32.30000     0.54921     4.94932     2.46100     0.33143     0.00042     0.00000     0.02638     0.00083
     3.04400     0.57680    32.30000     0.54337     4.96680     2.46720     0.32824     0.00042     0.00000     0.02754     0.00084
     3.04400     0.57060    32.30000     0.53753     4.98427     2.47340     0.32505     0.00042     0.00000     0.02867     0.00086
     3.04400     0.56360    32.30000     0.53094     5.00400     2.48040     0.32142     0.00042     0.00000     0.02723     0.00089
     3.04400     0.55840    32.30000     0.52604     5.01866     2.48560     0.31873     0.00042     0.00000     0.02811     0.00091
     3.04400     0.55310    32.30000     0.52104     5.03360     2.49090     0.31597     0.00042     0.00000     0.02710     0.00089
     3.04400     0.54790    32.30000     0.51615     5.04825     2.49610     0.31326     0.00042     0.00000     0.02718     0.00090
     3.04400     0.54270    32.30000     0.51125     5.06291     2.50130     0.31054     0.00042     0.00000     0.02671     0.00089
     3.04400     0.53740    32.30000     0.50625     5.07785     2.50660     0.30777     0.00042     0.00000     0.02781     0.00092
     3.04400     0.53220    32.30000     0.50136     5.09251     2.51180     0.30504     0.00042     0.00000     0.02755     0.00093
     3.04400     0.52690    32.30000     0.49636     5.10744     2.51710     0.30225     0.00042     0.00000     0.02687     0.00091
     3.04400     0.52170    32.30000     0.49146     5.12210     2.52230     0.29951     0.00042     0.00000     0.02760     0.00096
     3.04400     0.51640    32.30000     0.48647     5.13704     2.52760     0.29671     0.00042     0.00000     0.02779     0.00096
     3.04400     0.51120    32.30000     0.48157     5.15170     2.53280     0.29396     0.00042     0.00000     0.02759     0.00096
     3.04400     0.50590    32.30000     0.47658     5.16664     2.53810     0.29115     0.00042     0.00000     0.02702     0.00097
     3.04400     0.50070    32.30000     0.47168     5.18129     2.54330     0.28838     0.00042     0.00000     0.02820     0.00100
     3.04400     0.49550    32.30000     0.46678     5.19595     2.54850     0.28561     0.00042     0.00000     0.02755     0.00100
     3.04400     0.49020    32.30000     0.46179     5.21089     2.55380     0.28278     0.00041     0.00000     0.02719     0.00098
     3.04400     0.48500    32.30000     0.45689     5.22554     2.55900     0.27999     0.00041     0.00000     0.02742     0.00099
     3.04400     0.47910    32.30000     0.45133     5.24217     2.56490     0.27683     0.00041     0.00000     0.02952     0.00101
     3.04400     0.47470    32.30000     0.44719     5.25458     2.56930     0.27446     0.00041     0.00000     0.02846     0.00099
     3.04400     0.47020    32.30000     0.44295     5.26726     2.57380     0.27204     0.00041     0.00000     0.02811     0.00099
     3.04400     0.46580    32.30000     0.43880     5.27966     2.57820     0.26967     0.00041     0.00000     0.02755     0.00098
     3.04400     0.46130    32.30000     0.43457     5.29234     2.58270     0.26723     0.00041     0.00000     0.02791     0.00100
     3.04400     0.45680    32.30000     0.43033     5.30503     2.58720     0.26480     0.00041     0.00000     0.02936     0.00103
     3.04400     0.45240    32.30000     0.42618     5.31743     2.59160     0.26241     0.00041     0.00000     0.02821     0.00102
     3.04400     0.44790    32.30000     0.42194     5.33011     2.59610     0.25997     0.00041     0.00000     0.02901     0.00106
     3.04400     0.44350    32.30000     0.41780     5.34252     2.60050     0.25757     0.00041     0.00000     0.02819     0.00105
     3.04400     0.43900    32.30000     0.41356     5.35520     2.60500     0.25512     0.00041     0.00000     0.02921     0.00109
     3.04400     0.43460    32.30000     0.40941     5.36760     2.60940     0.25272     0.00041     0.00000     0.02915     0.00111
     3.04400     0.43010    32.30000     0.40517     5.38028     2.61390     0.25026     0.00041     0.00000     0.02819     0.00110
     3.04400     0.42560    32.30000     0.40093     5.39297     2.61840     0.24779     0.00041     0.00000     0.02845     0.00112
     3.04400     0.42120    32.30000     0.39679     5.40537     2.62280     0.24538     0.00041     0.00000     0.02887     0.00113
     3.04400     0.41670    32.30000     0.39255     5.41805     2.62730     0.24290     0.00041     0.00000     0.02820     0.00111
     3.04400     0.41230    32.30000     0.38840     5.43046     2.63170     0.24048     0.00041     0.00000     0.02889     0.00112
     3.04400     1.76960    36.19000     2.07857     1.19326     1.27440     0.72444     0.00006     0.00000     0.00007     0.00006
     3.04400     1.75180    36.19000     2.05766     1.24757     1.29220     0.72107     0.00007     0.00000     0.00055     0.00003
     3.04400     1.73400    36.19000     2.03675     1.30188     1.31000     0.71764     0.00008     0.00000     0.00114     0.00004
     3.04400     1.71630    36.19000     2.01596     1.35589     1.32770     0.71416     0.00009     0.00000     0.00231     0.00006
     3.04400     1.69850    36.19000     1.99505     1.41020     1.34550     0.71058     0.00010     0.00000     0.00367     0.00008
     3.04400     1.68070    36.19000     1.97414     1.46451     1.36330     0.70693     0.00011     0.00000     0.00476     0.00010
     3.04400     1.66290    36.19000     1.95324     1.51882     1.38110     0.70320     0.00012     0.00000     0.00503     0.00011
     3.04400     1.64510    36.19000     1.93233     1.57313     1.39890     0.69940     0.00013     0.00000     0.00485     0.00010
     3.04400     0.84840    36.19000     0.99653     4.00397     2.19560     0.44514     0.00031     0.00000     0.01568     0.00052
     3.04400     0.84050    36.19000     0.98725     4.02808     2.20350     0.44175     0.00031     0.00000     0.01570     0.00052
     3.04400     0.83260    36.19000     0.97797     4.05218     2.21140     0.43834     0.00031     0.00000     0.01515     0.00051
     3.04400     0.82470    36.19000     0.96869     4.07628     2.21930     0.43492     0.00031     0.00000     0.01571     0.00052
     3.04400     0.81680    36.19000     0.95941     4.10039     2.22720     0.43149     0.00031     0.00000     0.01632     0.00053
     3.04400     0.80890    36.19000     0.95013     4.12449     2.23510     0.42803     0.00031     0.00000     0.01599     0.00052
     3.04400     0.80100    36.19000     0.94085     4.14860     2.24300     0.42456     0.00031     0.00000     0.01604     0.00053
     3.04400     0.79310    36.19000     0.93157     4.17270     2.25090     0.42107     0.00031     0.00000     0.01597     0.00053
     3.04400     0.78530    36.19000     0.92241     4.19650     2.25870     0.41761     0.00031     0.00000     0.01650     0.00054
     3.04400     0.77740    36.19000     0.91313     4.22060     2.26660     0.41409     0.00031     0.00000     0.01633     0.00055
     3.04400     0.76950    36.19000     0.90385     4.24471     2.27450     0.41055     0.00031     0.00000     0.01682     0.00056
     3.04400     0.76160    36.19000     0.89457     4.26881     2.28240     0.40700     0.00031     0.00000     0.01621     0.00055
     3.04400     0.75370    36.19000     0.88529     4.29291     2.29030     0.40343     0.00032     0.00000     0.01689     0.00058
     3.04400     0.74580    36.19000     0.87601     4.31702     2.29820     0.39984     0.00032     0.00000     0.01689     0.00058
     3.04400     0.73790    36.19000     0.86673     4.34112     2.30610     0.39624     0.00032     0.00000     0.01671     0.00058
     3.04400     0.73000    36.19000     0.85746     4.36523     2.31400     0.39262     0.00032     0.00000     0.01737     0.00058
     3.04400     0.72100    36.19000     0.84688     4.39269     2.32300     0.38847     0.00032     0.00000     0.01721     0.00050
     3.04400     0.71430    36.19000     0.83901     4.41313     2.32970     0.38537     0.00032     0.00000     0.01689     0.00049
     3.04400     0.70760    36.19000     0.83114     4.43357     2.33640     0.38226     0.00032     0.00000     0.01673     0.00048
     3.04400     0.70090    36.19000     0.82327     4.45401     2.34310     0.37914     0.00032     0.00000     0.01717     0.00050
     3.04400     0.69420    36.19000     0.81540     4.47446     2.34980     0.37601     0.00032     0.00000     0.01731     0.00050
     3.04400     0.68750    36.19000     0.80753     4.49490     2.35650     0.37287     0.00032     0.00000     0.01726     0.00050
     3.04400     0.68080    36.19000     0.79967     4.51534     2.36320     0.36971     0.00032     0.00000     0.01745     0.00051
     3.04400     0.67410    36.19000     0.79180     4.53579     2.36990     0.36654     0.00032     0.00000     0.01735     0.00051
     3.04400     0.66730    36.19000     0.78381     4.55653     2.37670     0.36331     0.00032     0.00000     0.01776     0.00051
     3.04400     0.66060    36.19000     0.77594     4.57698     2.38340     0.36012     0.00032     0.00000     0.01741     0.00052
     3.04400     0.65390    36.19000     0.76807     4.59742     2.39010     0.35692     0.00032     0.00000     0.01817     0.00053
     3.04400     0.64720    36.19000     0.76020     4.61786     2.39680     0.35371     0.00032     0.00000     0.01733     0.00053
     3.04400     0.64050    36.19000     0.75233     4.63830     2.40350     0.35049     0.00032     0.00000     0.01713     0.00053
     3.04400     0.63380    36.19000     0.74446     4.65875     2.41020     0.34725     0.00032     0.00000     0.01757     0.00053
     3.04400     0.62710    36.19000     0.73659     4.67919     2.41690     0.34400     0.00032     0.00000     0.01796     0.00055
     3.04400     0.62040    36.19000     0.72872     4.69963     2.42360     0.34075     0.00032     0.00000     0.01791     0.00054
     3.04400     0.61300    36.19000     0.72003     4.72221     2.43100     0.33714     0.00032     0.00000     0.01827     0.00061
     3.04400     0.60730    36.19000     0.71333     4.73960     2.43670     0.33434     0.00032     0.00000     0.01805     0.00061
     3.04400     0.60160    36.19000     0.70664     4.75699     2.44240     0.33155     0.00032     0.00000     0.01779     0.00061
     3.04400     0.59590    36.19000     0.69994     4.77438     2.44810     0.32874     0.00032     0.00000     0.01829     0.00061
     3.04400     0.59020    36.19000     0.69325     4.79178     2.45380     0.32593     0.00032     0.00000     0.01863     0.00062
     3.04400     0.58450    36.19000     0.68655     4.80917     2.45950     0.32310     0.00032     0.00000     0.01834     0.00063
     3.04400     0.57880    36.19000     0.67986     4.82656     2.46520     0.32027     0.00032     0.00000     0.01844     0.00063
     3.04400     0.57310    36.19000     0.67316     4.84395     2.47090     0.31744     0.00032     0.00000     0.01805     0.00063
     3.04400     0.56730    36.19000     0.66635     4.86165     2.47670     0.31454     0.00032     0.00000     0.01885     0.00065
     3.04400     0.56160    36.19000     0.65965     4.87904     2.48240     0.31169     0.00032     0.00000     0.01845     0.00066
     3.04400     0.55590    36.19000     0.65296     4.89643     2.48810     0.30883     0.00032     0.00000     0.01867     0.00066
     3.04400     0.55020    36.19000     0.64626     4.91382     2.49380     0.30596     0.00032     0.00000     0.01851     0.00067
     3.04400     0.54450    36.19000     0.63957     4.93121     2.49950     0.30308     0.00032     0.00000     0.01896     0.00068
     3.04400     0.53880    36.19000     0.63287     4.94860     2.50520     0.30020     0.00032     0.00000     0.01919     0.00070
     3.04400     0.53310    36.19000     0.62618     4.96600     2.51090     0.29731     0.00032     0.00000     0.01828     0.00068
     3.04400     0.52740    36.19000     0.61948     4.98339     2.51660     0.29441     0.00032     0.00000     0.01897     0.00068
     3.04400     0.48310    36.19000     0.56745     5.11855     2.56090     0.27163     0.00032     0.00000     0.02068     0.00141
     3.04400     0.47860    36.19000     0.56216     5.13228     2.56540     0.26929     0.00032     0.00000     0.01929     0.00136
     3.04400     0.47410    36.19000     0.55688     5.14601     2.56990     0.26695     0.00032     0.00000     0.01962     0.00138
     3.04400     0.46960    36.19000     0.55159     5.15974     2.57440     0.26460     0.00032     0.00000     0.02062     0.00143
     3.04400     0.46510    36.19000     0.54630     5.17347     2.57890     0.26225     0.00032     0.00000     0.01862     0.00136
     3.04400     0.46060    36.19000     0.54102     5.18720     2.58340     0.25990     0.00032     0.00000     0.02009     0.00140
     3.04400     0.45610    36.19000     0.53573     5.20093     2.58790     0.25754     0.00032     0.00000     0.01971     0.00143
     3.04400     0.45160    36.19000     0.53045     5.21466     2.59240     0.25517     0.00032     0.00000     0.02095     0.00150
     3.04400     0.44720    36.19000     0.52528     5.22809     2.59680     0.25285     0.00032     0.00000     0.02086     0.00157
     3.04400     0.44270    36.19000     0.51999     5.24182     2.60130     0.25048     0.00032     0.00000     0.02084     0.00159
     3.04400     0.43820    36.19000     0.51471     5.25555     2.60580     0.24810     0.00032     0.00000     0.02062     0.00158
     3.04400     0.43370    36.19000     0.50942     5.26928     2.61030     0.24572     0.00032     0.00000     0.02059     0.00163
     3.04400     0.42920    36.19000     0.50414     5.28301     2.61480     0.24334     0.00032     0.00000     0.02029     0.00164
     3.04400     0.42470    36.19000     0.49885     5.29674     2.61930     0.24095     0.00032     0.00000     0.02063     0.00158
     3.04400     0.42020    36.19000     0.49357     5.31047     2.62380     0.23855     0.00032     0.00000     0.01950     0.00163
     3.04400     0.41570    36.19000     0.48828     5.32420     2.62830     0.23615     0.00032     0.00000     0.02100     0.00161
     5.50050     4.81150    11.21000     1.00986     1.16343     0.68900     0.97246     0.00175     0.00000     0.00074     0.01367
     5.50050     4.76410    11.21000     0.99991     1.26233     0.73640     0.97115     0.00226     0.00000     0.08776     0.00637
     5.50050     4.71670    11.21000     0.98997     1.36123     0.78380     0.96973     0.00271     0.00000     0.30098     0.00740
     5.50050     4.66930    11.21000     0.98002     1.46012     0.83120     0.96820     0.00311     0.00000     0.51910     0.01108
     5.50050     4.62190    11.21000     0.97007     1.55902     0.87860     0.96657     0.00346     0.00000     0.45984     0.00982
     5.50050     4.57450    11.21000     0.96012     1.65792     0.92600     0.96482     0.00377     0.00000     0.33600     0.00739
     5.50050     4.52710    11.21000     0.95017     1.75681     0.97340     0.96295     0.00404     0.00000     0.28044     0.00627
     5.50050     4.47970    11.21000     0.94022     1.85571     1.02080     0.96097     0.00426     0.00000     0.26263     0.00590
     5.50050     4.43230    11.21000     0.93027     1.95461     1.06820     0.95887     0.00446     0.00000     0.28154     0.00624
     5.50050     4.38490    11.21000     0.92033     2.05350     1.11560     0.95665     0.00462     0.00000     0.32034     0.00697
     5.50050     4.33160    11.21000     0.90914     2.16471     1.16890     0.95401     0.00477     0.00000     0.40732     0.00892
     5.50050     4.29130    11.21000     0.90068     2.24879     1.20920     0.95190     0.00485     0.00000     0.50438     0.01084
     5.50050     4.25100    11.21000     0.89222     2.33288     1.24950     0.94970     0.00493     0.00000     0.44470     0.00967
     5.50050     4.21070    11.21000     0.88376     2.41696     1.28980     0.94740     0.00498     0.00000     0.37717     0.00832
     5.50050     4.17040    11.21000     0.87530     2.50104     1.33010     0.94500     0.00503     0.00000     0.35473     0.00785
     5.50050     4.13010    11.21000     0.86685     2.58513     1.37040     0.94251     0.00506     0.00000     0.35567     0.00784
     5.50050     4.08980    11.21000     0.85839     2.66921     1.41070     0.93992     0.00508     0.00000     0.37337     0.00820
     5.50050     4.04950    11.21000     0.84993     2.75329     1.45100     0.93723     0.00509     0.00000     0.43471     0.00944
     5.50050     4.00930    11.21000     0.84149     2.83717     1.49120     0.93444     0.00509     0.00000     0.47334     0.01023
     5.50050     3.96900    11.21000     0.83303     2.92125     1.53150     0.93153     0.00509     0.00000     0.45526     0.00987
     5.50050     3.92870    11.21000     0.82458     3.00533     1.57180     0.92853     0.00507     0.00000     0.41706     0.00913
     5.50050     3.88840    11.21000     0.81612     3.08942     1.61210     0.92541     0.00505     0.00000     0.37595     0.00835
     5.50050     3.84810    11.21000     0.80766     3.17350     1.65240     0.92218     0.00503     0.00000     0.35173     0.00787
     5.50050     3.80780    11.21000     0.79920     3.25758     1.69270     0.91885     0.00500     0.00000     0.35659     0.00798
     5.50050     3.76750    11.21000     0.79074     3.34167     1.73300     0.91540     0.00496     0.00000     0.35174     0.00788
     5.50050     3.72720    11.21000     0.78228     3.42575     1.77330     0.91183     0.00493     0.00000     0.35308     0.00791
     5.50050     3.68180    11.21000     0.77275     3.52047     1.81870     0.90768     0.00488     0.00000     0.34646     0.00779
     5.50050     3.64750    11.21000     0.76556     3.59204     1.85300     0.90444     0.00484     0.00000     0.33957     0.00767
     5.50050     3.61330    11.21000     0.75838     3.66339     1.88720     0.90113     0.00480     0.00000     0.34129     0.00770
     5.50050     3.57900    11.21000     0.75118     3.73496     1.92150     0.89771     0.00476     0.00000     0.33969     0.00766
     5.50050     3.54480    11.21000     0.74400     3.80631     1.95570     0.89422     0.00472     0.00000     0.33448     0.00755
     5.50050     3.51050    11.21000     0.73680     3.87788     1.99000     0.89064     0.00468     0.00000     0.31903     0.00726
     5.50050     3.47630    11.21000     0.72962     3.94924     2.02420     0.88697     0.00463     0.00000     0.31730     0.00722
     5.50050     3.44200    11.21000     0.72242     4.02080     2.05850     0.88320     0.00459     0.00000     0.31902     0.00725
     5.50050     3.40780    11.21000     0.71525     4.09216     2.09270     0.87935     0.00454     0.00000     0.30814     0.00705
     5.50050     3.37350    11.21000     0.70805     4.16372     2.12700     0.87539     0.00450     0.00000     0.30524     0.00700
     5.50050     3.33930    11.21000     0.70087     4.23508     2.16120     0.87136     0.00445     0.00000     0.30139     0.00694
     5.50050     3.30500    11.21000     0.69367     4.30664     2.19550     0.86722     0.00440     0.00000     0.29917     0.00693
     5.50050     3.27080    11.21000     0.68649     4.37800     2.22970     0.86299     0.00436     0.00000     0.29576     0.00687
     5.50050     3.23650    11.21000     0.67929     4.44956     2.26400     0.85866     0.00431     0.00000     0.29063     0.00678
     5.50050     3.20230    11.21000     0.67212     4.52092     2.29820     0.85424     0.00426     0.00000     0.28471     0.00666
     5.50050     3.16800    11.21000     0.66492     4.59248     2.33250     0.84971     0.00421     0.00000     0.29300     0.00681
     5.50050     3.12950    11.21000     0.65684     4.67281     2.37100     0.84451     0.00416     0.00000     0.28605     0.00730
     5.50050     3.10040    11.21000     0.65073     4.73352     2.40010     0.84049     0.00412     0.00000     0.28223     0.00723
     5.50050     3.07130    11.21000     0.64462     4.79424     2.42920     0.83640     0.00408     0.00000     0.28013     0.00719
     5.50050     3.04220    11.21000     0.63851     4.85495     2.45830     0.83224     0.00404     0.00000     0.27888     0.00713
     5.50050     3.01310    11.21000     0.63240     4.91567     2.48740     0.82801     0.00400     0.00000     0.26919     0.00692
     5.50050     2.98400    11.21000     0.62630     4.97639     2.51650     0.82370     0.00396     0.00000     0.26925     0.00695
     5.50050     2.95490    11.21000     0.62019     5.03710     2.54560     0.81932     0.00393     0.00000     0.26475     0.00687
     5.50050     2.92580    11.21000     0.61408     5.09782     2.57470     0.81486     0.00389     0.00000     0.26104     0.00680
     5.50050     2.89660    11.21000     0.60795     5.15874     2.60390     0.81031     0.00385     0.00000     0.26071     0.00682
     5.50050     2.86750    11.21000     0.60185     5.21945     2.63300     0.80571     0.00381     0.00000     0.25540     0.00672
     5.50050     2.83840    11.21000     0.59574     5.28017     2.66210     0.80102     0.00377     0.00000     0.25017     0.00663
     5.50050     2.80930    11.21000     0.58963     5.34088     2.69120     0.79626     0.00374     0.00000     0.25091     0.00670
     5.50050     2.78020    11.21000     0.58352     5.40160     2.72030     0.79143     0.00370     0.00000     0.24202     0.00654
     5.50050     2.75110    11.21000     0.57741     5.46231     2.74940     0.78651     0.00366     0.00000     0.24233     0.00657
     5.50050     2.72200    11.21000     0.57131     5.52303     2.77850     0.78152     0.00363     0.00000     0.24953     0.00667
     5.50050     2.69290    11.21000     0.56520     5.58375     2.80760     0.77645     0.00359     0.00000     0.24383     0.00658
