#
# Source: https://hallcweb.jlab.org/resdata/database/
# SLAC experiment e8920 deuterium, with Whitlow normalization 0.949. 
# Uncertainties shown are statistical only. 
# At least 5% systematic uncertainties are estimated, but not reflected in this data set.
#
# E      EP       Theta       Q^2           W^2       Nu       Epsilon    Gamma         x        Sigma         Uncertainty
# (Gev)  (Gev)    (degrees)   ((Gev/c)^2)   (Gev^2)   (Gev)                                      (nb/Ser*Gev)
#
7.000    6.585    6.000       0.505         1.156     0.415    0.993      1.381e-002    0.648    1.972e+003    4.308e+002    
7.000    6.563    6.000       0.503         1.197     0.437    0.992      1.544e-002    0.614    1.652e+003    1.059e+003    
7.000    6.517    6.000       0.500         1.286     0.483    0.992      1.862e-002    0.551    5.304e+003    7.707e+002    
7.000    6.494    6.000       0.498         1.332     0.506    0.992      2.008e-002    0.525    7.646e+003    3.572e+002    
7.000    6.470    6.000       0.496         1.378     0.530    0.991      2.142e-002    0.499    9.337e+003    3.319e+002    
7.000    6.446    6.000       0.494         1.426     0.554    0.991      2.268e-002    0.476    1.199e+004    3.580e+002    
7.000    6.421    6.000       0.492         1.474     0.579    0.991      2.381e-002    0.453    1.394e+004    3.693e+002    
7.000    6.396    6.000       0.491         1.523     0.604    0.991      2.485e-002    0.433    1.396e+004    3.522e+002    
7.000    6.371    6.000       0.489         1.573     0.629    0.990      2.581e-002    0.414    1.263e+004    3.221e+002    
7.000    6.345    6.000       0.487         1.623     0.655    0.990      2.665e-002    0.396    1.087e+004    2.908e+002    
7.000    6.319    6.000       0.485         1.674     0.681    0.989      2.740e-002    0.379    1.014e+004    2.731e+002    
7.000    6.293    6.000       0.483         1.727     0.707    0.989      2.809e-002    0.364    9.124e+003    2.832e+002    
7.000    6.266    6.000       0.481         1.777     0.734    0.988      2.857e-002    0.349    9.537e+003    7.378e+002    
7.000    6.124    6.000       0.470         2.053     0.876    0.986      3.019e-002    0.286    6.135e+003    6.761e+002    
7.000    6.095    6.000       0.467         2.111     0.905    0.985      3.033e-002    0.275    6.722e+003    1.507e+002    
7.000    6.065    6.000       0.465         2.170     0.935    0.984      3.039e-002    0.265    7.156e+003    1.282e+002    
7.000    6.035    6.000       0.463         2.229     0.965    0.984      3.041e-002    0.256    7.210e+003    1.274e+002    
7.000    6.004    6.000       0.460         2.289     0.996    0.983      3.036e-002    0.246    7.506e+003    1.282e+002    
7.000    5.973    6.000       0.458         2.350     1.027    0.982      3.028e-002    0.238    7.523e+003    1.262e+002    
7.000    5.941    6.000       0.456         2.412     1.059    0.981      3.012e-002    0.229    7.513e+003    1.248e+002    
7.000    5.909    6.000       0.453         2.474     1.091    0.980      2.995e-002    0.221    7.464e+003    1.307e+002    
7.000    5.877    6.000       0.451         2.538     1.123    0.980      2.976e-002    0.214    6.862e+003    3.240e+002    
7.000    5.709    6.000       0.438         2.863     1.291    0.974      2.829e-002    0.181    6.239e+003    8.232e+002    
7.000    5.675    6.000       0.435         2.931     1.325    0.973      2.797e-002    0.175    5.799e+003    9.900e+001    
7.000    5.639    6.000       0.432         3.000     1.361    0.972      2.758e-002    0.169    5.775e+003    8.218e+001    
7.000    5.604    6.000       0.430         3.070     1.396    0.970      2.723e-002    0.164    5.739e+003    8.099e+001    
7.000    5.568    6.000       0.427         3.140     1.432    0.969      2.685e-002    0.159    5.600e+003    7.885e+001    
7.000    5.531    6.000       0.424         3.211     1.469    0.968      2.644e-002    0.154    5.260e+003    7.610e+001    
7.000    5.495    6.000       0.421         3.283     1.505    0.966      2.607e-002    0.149    5.444e+003    9.220e+001    
7.000    5.225    6.000       0.401         3.810     1.775    0.954      2.317e-002    0.120    3.534e+003    5.511e+002    
7.000    5.185    6.000       0.398         3.889     1.815    0.951      2.276e-002    0.117    3.956e+003    6.346e+001    
7.000    5.145    6.000       0.395         3.968     1.855    0.949      2.236e-002    0.113    3.920e+003    5.546e+001    
13.500   12.066   6.000       1.785         1.788     1.434    0.988      7.662e-003    0.663    3.778e+002    3.383e+001    
13.500   12.039   6.000       1.781         1.841     1.461    0.988      7.947e-003    0.649    4.165e+002    2.177e+001    
13.500   12.012   6.000       1.777         1.896     1.488    0.988      8.224e-003    0.636    3.824e+002    1.578e+001    
13.500   11.985   6.000       1.773         1.952     1.515    0.988      8.492e-003    0.624    4.307e+002    1.358e+001    
13.500   11.957   6.000       1.769         2.008     1.543    0.987      8.744e-003    0.611    4.574e+002    1.282e+001    
13.500   11.929   6.000       1.764         2.062     1.571    0.987      8.967e-003    0.598    4.433e+002    1.262e+001    
13.500   11.901   6.000       1.760         2.120     1.599    0.987      9.202e-003    0.587    4.798e+002    1.293e+001    
13.500   11.872   6.000       1.756         2.179     1.628    0.986      9.422e-003    0.575    5.313e+002    1.342e+001    
13.500   11.843   6.000       1.752         2.238     1.657    0.986      9.634e-003    0.563    5.667e+002    1.369e+001    
13.500   11.813   6.000       1.747         2.298     1.687    0.986      9.829e-003    0.552    5.550e+002    1.343e+001    
13.500   11.783   6.000       1.743         2.359     1.717    0.985      1.002e-002    0.541    6.051e+002    1.375e+001    
13.500   11.753   6.000       1.738         2.421     1.747    0.985      1.020e-002    0.530    6.001e+002    1.361e+001    
13.500   11.722   6.000       1.734         2.484     1.778    0.985      1.036e-002    0.520    6.288e+002    1.372e+001    
13.500   11.691   6.000       1.729         2.547     1.809    0.984      1.052e-002    0.509    6.571e+002    1.392e+001    
13.500   11.659   6.000       1.724         2.611     1.841    0.984      1.066e-002    0.499    6.352e+002    1.331e+001    
13.500   11.627   6.000       1.720         2.673     1.873    0.984      1.077e-002    0.489    6.672e+002    1.336e+001    
13.500   11.595   6.000       1.715         2.739     1.905    0.983      1.090e-002    0.480    6.516e+002    1.284e+001    
13.500   11.562   6.000       1.710         2.806     1.938    0.983      1.101e-002    0.470    6.646e+002    1.282e+001    
13.500   11.529   6.000       1.705         2.873     1.971    0.982      1.112e-002    0.461    6.832e+002    1.314e+001    
13.500   11.495   6.000       1.700         2.941     2.005    0.982      1.121e-002    0.452    6.880e+002    1.309e+001    
13.500   11.462   6.000       1.695         3.010     2.038    0.981      1.130e-002    0.443    7.178e+002    1.320e+001    
13.500   11.427   6.000       1.690         3.080     2.073    0.981      1.137e-002    0.434    6.911e+002    1.285e+001    
13.500   11.392   6.000       1.685         3.151     2.108    0.980      1.144e-002    0.426    7.250e+002    1.298e+001    
13.500   11.357   6.000       1.680         3.222     2.143    0.980      1.150e-002    0.418    7.180e+002    1.282e+001    
13.500   11.322   6.000       1.675         3.294     2.178    0.979      1.155e-002    0.410    7.320e+002    1.277e+001    
13.500   11.286   6.000       1.669         3.367     2.214    0.979      1.159e-002    0.402    7.245e+002    1.269e+001    
13.500   11.250   6.000       1.664         3.441     2.250    0.978      1.163e-002    0.394    7.574e+002    1.443e+001    
13.500   11.213   6.000       1.659         3.516     2.287    0.978      1.166e-002    0.386    7.428e+002    1.858e+001    
13.500   11.176   6.000       1.653         3.591     2.324    0.977      1.168e-002    0.379    7.573e+002    3.240e+001    
16.000   14.493   6.000       2.541         1.169     1.507    0.990      1.966e-003    0.898    2.505e+001    3.193e+000    
16.000   14.472   6.000       2.537         1.210     1.528    0.990      2.218e-003    0.885    3.289e+001    2.758e+000    
16.000   14.451   6.000       2.533         1.254     1.549    0.989      2.483e-003    0.871    4.799e+001    2.690e+000    
16.000   14.429   6.000       2.529         1.300     1.571    0.989      2.743e-003    0.858    5.753e+001    2.658e+000    
16.000   14.407   6.000       2.526         1.346     1.593    0.989      3.000e-003    0.845    7.307e+001    2.757e+000    
16.000   14.384   6.000       2.522         1.392     1.616    0.989      3.253e-003    0.831    9.012e+001    2.909e+000    
16.000   14.361   6.000       2.517         1.438     1.639    0.989      3.487e-003    0.818    9.566e+001    2.932e+000    
16.000   14.338   6.000       2.513         1.486     1.662    0.989      3.732e-003    0.806    1.071e+002    3.023e+000    
16.000   14.314   6.000       2.509         1.535     1.686    0.988      3.972e-003    0.793    1.121e+002    3.061e+000    
16.000   14.290   6.000       2.505         1.585     1.710    0.988      4.208e-003    0.781    1.229e+002    3.193e+000    
16.000   14.265   6.000       2.501         1.636     1.735    0.988      4.437e-003    0.768    1.252e+002    3.123e+000    
16.000   14.240   6.000       2.496         1.687     1.760    0.988      4.662e-003    0.756    1.276e+002    3.015e+000    
16.000   14.215   6.000       2.492         1.737     1.785    0.988      4.869e-003    0.744    1.409e+002    3.024e+000    
16.000   14.189   6.000       2.487         1.790     1.811    0.987      5.083e-003    0.732    1.386e+002    2.946e+000    
16.000   14.163   6.000       2.483         1.844     1.837    0.987      5.292e-003    0.720    1.497e+002    3.004e+000    
16.000   14.137   6.000       2.478         1.899     1.863    0.987      5.498e-003    0.709    1.556e+002    3.096e+000    
16.000   14.110   6.000       2.473         1.954     1.890    0.987      5.695e-003    0.697    1.633e+002    3.317e+000    
16.000   14.082   6.000       2.469         2.011     1.918    0.987      5.885e-003    0.686    1.741e+002    3.659e+000    
16.000   14.055   6.000       2.464         2.068     1.945    0.986      6.073e-003    0.675    1.810e+002    4.062e+000    
16.000   14.027   6.000       2.459         2.126     1.973    0.986      6.254e-003    0.664    1.973e+002    4.776e+000    
16.000   13.998   6.000       2.454         2.182     2.002    0.986      6.411e-003    0.653    2.122e+002    5.927e+000    
16.000   13.970   6.000       2.449         2.241     2.030    0.985      6.582e-003    0.643    2.064e+002    6.084e+000    
16.000   13.940   6.000       2.444         2.301     2.060    0.985      6.740e-003    0.632    2.191e+002    6.046e+000    
16.000   13.911   6.000       2.439         2.362     2.089    0.985      6.899e-003    0.622    2.375e+002    6.166e+000    
16.000   13.881   6.000       2.433         2.424     2.119    0.985      7.048e-003    0.612    2.290e+002    6.041e+000    
16.000   13.850   6.000       2.428         2.487     2.150    0.984      7.188e-003    0.602    2.545e+002    6.658e+000    
16.000   13.820   6.000       2.423         2.550     2.180    0.984      7.329e-003    0.592    2.513e+002    7.161e+000    
16.000   13.788   6.000       2.417         2.615     2.212    0.984      7.456e-003    0.582    2.612e+002    8.192e+000    
16.000   13.757   6.000       2.412         2.680     2.243    0.983      7.583e-003    0.573    2.730e+002    1.003e+001    
16.000   13.725   6.000       2.406         2.742     2.275    0.983      7.688e-003    0.564    2.501e+002    1.263e+001    
16.000   13.693   6.000       2.400         2.809     2.307    0.983      7.802e-003    0.554    2.878e+002    1.426e+001    
16.000   13.660   6.000       2.395         2.876     2.340    0.982      7.907e-003    0.545    2.811e+002    1.397e+001    
16.000   13.627   6.000       2.389         2.945     2.373    0.982      8.009e-003    0.536    2.955e+002    1.418e+001    
16.000   13.348   6.000       2.340         3.519     2.652    0.978      8.611e-003    0.470    3.176e+002    2.586e+001    
16.000   13.311   6.000       2.333         3.591     2.689    0.978      8.648e-003    0.462    3.281e+002    1.896e+001    
16.000   13.274   6.000       2.327         3.667     2.726    0.977      8.695e-003    0.455    3.369e+002    1.545e+001    
16.000   13.237   6.000       2.320         3.744     2.763    0.977      8.739e-003    0.448    3.309e+002    1.369e+001    
16.000   13.199   6.000       2.314         3.822     2.801    0.976      8.775e-003    0.440    3.367e+002    1.370e+001    
16.000   13.161   6.000       2.307         3.901     2.839    0.976      8.808e-003    0.433    3.356e+002    1.362e+001    
16.000   13.122   6.000       2.300         3.980     2.878    0.975      8.834e-003    0.426    3.515e+002    1.380e+001    
19.500   17.367   6.000       3.710         1.173     2.133    0.988      1.145e-003    0.927    9.048e+000    8.402e-001    
19.500   17.346   6.000       3.706         1.217     2.154    0.988      1.301e-003    0.917    8.284e+000    7.108e-001    
19.500   17.325   6.000       3.701         1.261     2.175    0.988      1.457e-003    0.907    1.123e+001    6.834e-001    
19.500   17.304   6.000       3.697         1.304     2.196    0.987      1.603e-003    0.897    1.289e+001    6.626e-001    
19.500   17.282   6.000       3.692         1.350     2.218    0.987      1.757e-003    0.887    1.472e+001    6.559e-001    
19.500   17.260   6.000       3.688         1.397     2.240    0.987      1.909e-003    0.877    1.907e+001    6.991e-001    
19.500   17.237   6.000       3.683         1.445     2.263    0.987      2.060e-003    0.867    2.000e+001    7.064e-001    
19.500   17.214   6.000       3.678         1.491     2.286    0.987      2.200e-003    0.857    2.222e+001    7.420e-001    
19.500   17.191   6.000       3.673         1.540     2.309    0.987      2.348e-003    0.848    2.458e+001    7.830e-001    
19.500   17.167   6.000       3.668         1.590     2.333    0.987      2.494e-003    0.838    2.607e+001    8.250e-001    
19.500   17.143   6.000       3.663         1.641     2.357    0.986      2.638e-003    0.828    2.916e+001    8.993e-001    
19.500   17.119   6.000       3.657         1.693     2.381    0.986      2.781e-003    0.819    2.888e+001    9.533e-001    
19.500   17.094   6.000       3.652         1.742     2.406    0.986      2.912e-003    0.809    3.210e+001    1.083e+000    
19.500   17.069   6.000       3.647         1.796     2.431    0.986      3.050e-003    0.799    3.297e+001    1.233e+000    
19.500   17.043   6.000       3.641         1.850     2.457    0.986      3.186e-003    0.790    3.770e+001    1.327e+000    
19.500   17.017   6.000       3.636         1.904     2.483    0.985      3.319e-003    0.780    3.875e+001    1.297e+000    
19.500   16.991   6.000       3.630         1.960     2.509    0.985      3.451e-003    0.771    4.167e+001    1.297e+000    
19.500   16.964   6.000       3.624         2.016     2.536    0.985      3.579e-003    0.762    4.549e+001    1.323e+000    
19.500   16.937   6.000       3.619         2.071     2.563    0.985      3.697e-003    0.752    4.829e+001    1.368e+000    
19.500   16.909   6.000       3.613         2.129     2.591    0.985      3.819e-003    0.743    4.931e+001    1.424e+000    
19.500   16.881   6.000       3.607         2.187     2.619    0.984      3.940e-003    0.734    5.323e+001    1.531e+000    
19.500   16.853   6.000       3.601         2.247     2.647    0.984      4.059e-003    0.725    5.878e+001    1.667e+000    
19.500   16.824   6.000       3.594         2.307     2.676    0.984      4.174e-003    0.716    6.151e+001    1.781e+000    
19.500   16.795   6.000       3.588         2.369     2.705    0.984      4.286e-003    0.707    6.216e+001    1.894e+000    
19.500   16.766   6.000       3.582         2.430     2.734    0.983      4.397e-003    0.698    6.659e+001    2.105e+000    
19.500   16.736   6.000       3.576         2.490     2.764    0.983      4.495e-003    0.689    6.618e+001    2.300e+000    
19.500   16.706   6.000       3.569         2.554     2.794    0.983      4.599e-003    0.681    7.127e+001    2.398e+000    
19.500   16.675   6.000       3.563         2.618     2.825    0.983      4.700e-003    0.672    7.242e+001    2.318e+000    
19.500   16.644   6.000       3.556         2.683     2.856    0.982      4.798e-003    0.663    7.328e+001    2.242e+000    
19.500   16.613   6.000       3.549         2.749     2.887    0.982      4.894e-003    0.655    7.997e+001    2.326e+000    
19.500   16.581   6.000       3.542         2.816     2.919    0.982      4.985e-003    0.647    8.376e+001    2.435e+000    
19.500   16.549   6.000       3.536         2.883     2.951    0.981      5.074e-003    0.638    8.560e+001    2.559e+000    
19.500   16.517   6.000       3.529         2.952     2.983    0.981      5.162e-003    0.630    8.567e+001    2.680e+000    
19.500   16.484   6.000       3.522         3.021     3.016    0.981      5.245e-003    0.622    9.225e+001    2.942e+000    
19.500   16.450   6.000       3.514         3.087     3.050    0.980      5.314e-003    0.614    9.194e+001    3.176e+000    
19.500   16.417   6.000       3.507         3.158     3.083    0.980      5.393e-003    0.606    9.936e+001    3.660e+000    
19.500   16.383   6.000       3.500         3.229     3.117    0.980      5.467e-003    0.598    9.632e+001    3.896e+000    
19.500   16.348   6.000       3.493         3.301     3.152    0.979      5.537e-003    0.590    9.946e+001    3.777e+000    
19.500   16.314   6.000       3.485         3.375     3.186    0.979      5.607e-003    0.583    1.030e+002    3.635e+000    
19.500   16.278   6.000       3.478         3.448     3.222    0.979      5.670e-003    0.575    1.049e+002    3.515e+000    
19.500   16.243   6.000       3.470         3.523     3.257    0.978      5.734e-003    0.568    1.113e+002    3.601e+000    
19.500   16.207   6.000       3.463         3.599     3.293    0.978      5.793e-003    0.560    1.107e+002    3.581e+000    
19.500   16.171   6.000       3.455         3.675     3.329    0.977      5.851e-003    0.553    1.137e+002    3.625e+000    
19.500   16.134   6.000       3.447         3.752     3.366    0.977      5.903e-003    0.546    1.217e+002    3.972e+000    
19.500   16.097   6.000       3.439         3.830     3.403    0.977      5.955e-003    0.539    1.185e+002    4.306e+000    
19.500   16.059   6.000       3.431         3.905     3.441    0.976      5.993e-003    0.531    1.239e+002    4.752e+000    
19.500   16.021   6.000       3.423         3.984     3.479    0.976      6.038e-003    0.524    1.270e+002    4.783e+000    
13.300   8.459    15.000      7.667         2.298     4.841    0.877      1.880e-004    0.844    6.562e-001    2.933e-001    
13.300   8.437    15.000      7.647         2.359     4.863    0.876      1.946e-004    0.838    2.466e-001    1.154e-001    
13.300   8.415    15.000      7.627         2.421     4.885    0.875      2.012e-004    0.832    5.593e-001    1.316e-001    
13.300   8.393    15.000      7.607         2.484     4.907    0.874      2.077e-004    0.826    6.456e-001    1.179e-001    
13.300   8.370    15.000      7.586         2.547     4.930    0.873      2.142e-004    0.820    4.579e-001    8.675e-002    
13.300   8.347    15.000      7.565         2.608     4.953    0.872      2.203e-004    0.814    5.335e-001    8.362e-002    
13.300   8.324    15.000      7.545         2.673     4.976    0.871      2.267e-004    0.808    5.740e-001    8.213e-002    
13.300   8.300    15.000      7.523         2.739     5.000    0.870      2.331e-004    0.802    7.219e-001    9.135e-002    
13.300   8.276    15.000      7.501         2.806     5.024    0.869      2.395e-004    0.796    8.001e-001    9.517e-002    
13.300   8.252    15.000      7.479         2.873     5.048    0.867      2.458e-004    0.790    7.732e-001    9.305e-002    
13.300   8.228    15.000      7.458         2.941     5.072    0.866      2.521e-004    0.784    7.217e-001    8.037e-002    
13.300   8.203    15.000      7.435         3.010     5.097    0.865      2.583e-004    0.777    8.066e-001    6.554e-002    
13.300   8.178    15.000      7.412         3.080     5.122    0.864      2.645e-004    0.771    8.344e-001    5.535e-002    
13.300   8.153    15.000      7.390         3.151     5.147    0.863      2.706e-004    0.765    8.669e-001    4.950e-002    
13.300   8.127    15.000      7.366         3.222     5.173    0.862      2.766e-004    0.759    8.708e-001    4.480e-002    
13.300   8.101    15.000      7.343         3.294     5.199    0.860      2.826e-004    0.753    1.017e+000    4.445e-002    
13.300   8.075    15.000      7.319         3.367     5.225    0.859      2.886e-004    0.746    9.253e-001    4.240e-002    
13.300   8.049    15.000      7.295         3.441     5.251    0.858      2.945e-004    0.740    1.109e+000    4.344e-002    
13.300   8.022    15.000      7.271         3.516     5.278    0.857      3.003e-004    0.734    1.101e+000    3.795e-002    
13.300   7.995    15.000      7.246         3.587     5.305    0.855      3.056e-004    0.728    1.164e+000    3.457e-002    
13.300   7.968    15.000      7.222         3.663     5.332    0.854      3.113e-004    0.722    1.168e+000    3.155e-002    
13.300   7.940    15.000      7.197         3.740     5.360    0.852      3.169e-004    0.715    1.280e+000    3.068e-002    
13.300   7.912    15.000      7.171         3.818     5.388    0.851      3.224e-004    0.709    1.363e+000    3.195e-002    
13.300   7.884    15.000      7.146         3.897     5.416    0.850      3.279e-004    0.703    1.406e+000    3.385e-002    
13.300   7.856    15.000      7.120         3.976     5.444    0.848      3.334e-004    0.697    1.495e+000    3.660e-002    
16.000   9.932    15.000      10.830        1.438     6.068    0.868      4.756e-005    0.951    3.545e-002    5.632e-003    
16.000   9.916    15.000      10.812        1.486     6.084    0.867      5.144e-005    0.947    4.419e-002    5.872e-003    
16.000   9.899    15.000      10.794        1.535     6.101    0.866      5.535e-005    0.943    4.094e-002    5.722e-003    
16.000   9.882    15.000      10.775        1.585     6.118    0.866      5.928e-005    0.939    4.792e-002    5.764e-003    
16.000   9.865    15.000      10.757        1.636     6.135    0.865      6.324e-005    0.934    4.878e-002    5.836e-003    
16.000   9.848    15.000      10.738        1.687     6.152    0.864      6.723e-005    0.930    5.669e-002    5.925e-003    
16.000   9.831    15.000      10.719        1.737     6.169    0.864      7.102e-005    0.926    5.916e-002    6.126e-003    
16.000   9.813    15.000      10.700        1.790     6.187    0.863      7.504e-005    0.922    6.365e-002    6.045e-003    
16.000   9.795    15.000      10.680        1.844     6.205    0.862      7.908e-005    0.917    6.599e-002    6.160e-003    
16.000   9.777    15.000      10.661        1.899     6.223    0.862      8.314e-005    0.913    7.608e-002    6.502e-003    
16.000   9.758    15.000      10.640        1.954     6.242    0.861      8.719e-005    0.908    7.577e-002    6.290e-003    
16.000   9.739    15.000      10.619        2.011     6.261    0.860      9.127e-005    0.904    7.402e-002    6.213e-003    
16.000   9.720    15.000      10.598        2.068     6.280    0.859      9.536e-005    0.899    9.448e-002    6.551e-003    
16.000   9.701    15.000      10.578        2.126     6.299    0.859      9.947e-005    0.895    9.487e-002    6.557e-003    
16.000   9.681    15.000      10.556        2.182     6.319    0.858      1.033e-004    0.890    1.098e-001    7.054e-003    
16.000   9.661    15.000      10.534        2.241     6.339    0.857      1.074e-004    0.886    1.054e-001    6.918e-003    
16.000   9.641    15.000      10.512        2.301     6.359    0.856      1.116e-004    0.881    1.086e-001    6.575e-003    
16.000   9.620    15.000      10.489        2.362     6.380    0.855      1.157e-004    0.876    1.120e-001    6.971e-003    
16.000   9.600    15.000      10.468        2.424     6.400    0.854      1.198e-004    0.872    1.397e-001    7.299e-003    
16.000   9.579    15.000      10.445        2.487     6.421    0.854      1.240e-004    0.867    1.356e-001    7.325e-003    
16.000   9.557    15.000      10.421        2.550     6.443    0.853      1.280e-004    0.862    1.497e-001    7.478e-003    
16.000   9.536    15.000      10.398        2.615     6.464    0.852      1.322e-004    0.857    1.526e-001    7.489e-003    
16.000   9.514    15.000      10.374        2.680     6.486    0.851      1.363e-004    0.852    1.641e-001    7.745e-003    
16.000   9.492    15.000      10.350        2.742     6.508    0.850      1.402e-004    0.847    1.720e-001    7.899e-003    
16.000   9.469    15.000      10.325        2.809     6.531    0.849      1.442e-004    0.842    1.729e-001    7.871e-003    
16.000   9.447    15.000      10.301        2.876     6.553    0.848      1.484e-004    0.838    1.865e-001    8.104e-003    
16.000   9.424    15.000      10.276        2.945     6.576    0.847      1.525e-004    0.833    2.045e-001    8.162e-003    
16.000   9.401    15.000      10.251        3.014     6.599    0.846      1.565e-004    0.828    2.185e-001    8.412e-003    
16.000   9.377    15.000      10.224        3.084     6.623    0.845      1.606e-004    0.823    2.172e-001    8.633e-003    
16.000   9.354    15.000      10.199        3.154     6.646    0.844      1.647e-004    0.818    2.191e-001    8.509e-003    
16.000   9.330    15.000      10.173        3.226     6.670    0.843      1.687e-004    0.813    2.461e-001    8.981e-003    
16.000   9.305    15.000      10.146        3.298     6.695    0.842      1.727e-004    0.808    2.640e-001    8.951e-003    
16.000   9.281    15.000      10.120        3.371     6.719    0.841      1.767e-004    0.803    2.684e-001    9.001e-003    
16.000   9.256    15.000      10.092        3.445     6.744    0.840      1.807e-004    0.797    2.905e-001    8.997e-003    
16.000   9.231    15.000      10.065        3.519     6.769    0.839      1.847e-004    0.792    3.026e-001    9.066e-003    
16.000   9.206    15.000      10.038        3.591     6.794    0.837      1.884e-004    0.787    3.174e-001    9.096e-003    
16.000   9.180    15.000      10.010        3.667     6.820    0.836      1.923e-004    0.782    3.298e-001    9.250e-003    
16.000   9.154    15.000      9.981         3.744     6.846    0.835      1.962e-004    0.777    3.623e-001    9.675e-003    
16.000   9.128    15.000      9.953         3.822     6.872    0.834      2.001e-004    0.772    3.619e-001    9.937e-003    
16.000   9.102    15.000      9.925         3.901     6.898    0.833      2.039e-004    0.767    3.971e-001    1.073e-002    
16.000   9.075    15.000      9.895         3.980     6.925    0.831      2.078e-004    0.761    3.904e-001    1.112e-002    
19.500   10.660   5.000       1.582         3.301     8.840    0.839      1.023e-003    0.095    6.316e-002    2.052e-002    
19.500   10.638   5.000       1.579         3.375     8.862    0.838      1.048e-003    0.095    4.361e-002    9.591e-003    
19.500   10.615   5.000       1.575         3.448     8.885    0.837      1.072e-003    0.094    6.131e-002    8.425e-003    
19.500   10.592   5.000       1.572         3.523     8.908    0.836      1.097e-003    0.094    6.302e-002    7.061e-003    
19.500   10.568   5.000       1.568         3.599     8.932    0.835      1.121e-003    0.094    7.290e-002    6.567e-003    
19.500   10.544   5.000       1.565         3.675     8.956    0.834      1.145e-003    0.093    7.066e-002    5.770e-003    
19.500   10.521   5.000       1.561         3.752     8.979    0.833      1.170e-003    0.093    7.936e-002    5.499e-003    
19.500   10.496   5.000       1.558         3.830     9.004    0.832      1.194e-003    0.092    8.035e-002    5.129e-003    
19.500   10.472   5.000       1.554         3.905     9.028    0.831      1.217e-003    0.092    8.371e-002    4.738e-003    
19.500   10.447   5.000       1.550         3.984     9.053    0.830      1.240e-003    0.091    9.746e-002    4.820e-003    
6.500    4.675    18.000      2.975         1.332     1.825    0.904      2.237e-004    0.869    3.820e+000    7.861e-002    
6.500    4.656    18.000      2.962         1.378     1.844    0.903      2.439e-004    0.856    4.463e+000    7.932e-002    
6.500    4.637    18.000      2.950         1.426     1.863    0.902      2.639e-004    0.844    5.069e+000    8.443e-002    
6.500    4.618    18.000      2.938         1.474     1.882    0.900      2.838e-004    0.832    5.622e+000    9.442e-002    
6.500    4.599    18.000      2.926         1.523     1.901    0.899      3.035e-004    0.820    6.250e+000    1.088e-001    
6.500    4.579    18.000      2.913         1.570     1.921    0.898      3.218e-004    0.808    6.694e+000    1.228e-001    
6.500    4.559    18.000      2.901         1.621     1.941    0.897      3.410e-004    0.796    7.213e+000    1.356e-001    
6.500    4.539    18.000      2.888         1.672     1.961    0.895      3.601e-004    0.785    7.516e+000    1.456e-001    
6.500    4.518    18.000      2.875         1.724     1.982    0.894      3.787e-004    0.773    7.938e+000    1.583e-001    
6.500    4.497    18.000      2.861         1.777     2.003    0.892      3.971e-004    0.761    8.090e+000    1.604e-001    
6.500    4.476    18.000      2.848         1.831     2.024    0.891      4.153e-004    0.750    8.180e+000    1.517e-001    
6.500    4.454    18.000      2.834         1.885     2.046    0.889      4.331e-004    0.738    9.256e+000    1.547e-001    
6.500    4.432    18.000      2.820         1.940     2.068    0.888      4.505e-004    0.727    9.718e+000    1.592e-001    
6.500    4.410    18.000      2.806         1.997     2.090    0.886      4.678e-004    0.715    1.069e+001    1.655e-001    
6.500    4.387    18.000      2.791         2.053     2.113    0.885      4.844e-004    0.704    1.160e+001    1.712e-001    
6.500    4.365    18.000      2.777         2.111     2.135    0.883      5.012e-004    0.693    1.237e+001    1.782e-001    
6.500    4.341    18.000      2.762         2.170     2.159    0.881      5.170e-004    0.682    1.300e+001    1.976e-001    
6.500    4.318    18.000      2.747         2.229     2.182    0.879      5.329e-004    0.671    1.425e+001    2.464e-001    
6.500    4.294    18.000      2.732         2.289     2.206    0.878      5.482e-004    0.660    1.492e+001    2.862e-001    
6.500    4.270    18.000      2.717         2.350     2.230    0.876      5.631e-004    0.649    1.498e+001    3.073e-001    
6.500    4.245    18.000      2.701         2.412     2.255    0.874      5.775e-004    0.638    1.477e+001    3.322e-001    
6.500    4.220    18.000      2.685         2.474     2.280    0.872      5.915e-004    0.628    1.560e+001    3.619e-001    
6.500    4.195    18.000      2.669         2.534     2.305    0.870      6.041e-004    0.617    1.521e+001    3.741e-001    
6.500    4.170    18.000      2.653         2.599     2.330    0.867      6.175e-004    0.607    1.682e+001    3.875e-001    
6.500    4.144    18.000      2.637         2.663     2.356    0.865      6.303e-004    0.596    1.820e+001    3.692e-001    
6.500    4.118    18.000      2.620         2.729     2.382    0.863      6.427e-004    0.586    1.878e+001    3.314e-001    
6.500    4.092    18.000      2.604         2.796     2.408    0.861      6.548e-004    0.576    2.000e+001    3.433e-001    
6.500    4.065    18.000      2.586         2.863     2.435    0.858      6.663e-004    0.566    2.075e+001    3.519e-001    
6.500    4.038    18.000      2.569         2.931     2.462    0.856      6.774e-004    0.556    2.167e+001    3.537e-001    
6.500    4.010    18.000      2.551         3.000     2.490    0.853      6.878e-004    0.546    2.228e+001    3.652e-001    
6.500    3.983    18.000      2.534         3.070     2.517    0.851      6.983e-004    0.537    2.284e+001    4.176e-001    
6.500    3.955    18.000      2.516         3.140     2.545    0.848      7.081e-004    0.527    2.340e+001    3.463e-001    
6.500    3.926    18.000      2.498         3.211     2.574    0.845      7.171e-004    0.517    2.372e+001    2.592e-001    
6.500    3.898    18.000      2.480         3.283     2.602    0.842      7.263e-004    0.508    2.504e+001    2.646e-001    
6.500    3.869    18.000      2.462         3.356     2.631    0.839      7.348e-004    0.499    2.583e+001    2.775e-001    
6.500    3.840    18.000      2.443         3.430     2.660    0.836      7.429e-004    0.489    2.620e+001    2.962e-001    
6.500    3.810    18.000      2.424         3.504     2.690    0.833      7.503e-004    0.480    2.651e+001    4.367e-001    
6.500    3.689    18.000      2.347         3.810     2.811    0.820      7.768e-004    0.445    2.995e+001    1.375e+000    
6.500    3.657    18.000      2.327         3.889     2.843    0.817      7.820e-004    0.436    2.925e+001    4.747e-001    
6.500    3.626    18.000      2.307         3.968     2.874    0.813      7.873e-004    0.428    3.070e+001    4.266e-001    
10.400   6.569    18.000      6.687         1.383     3.831    0.862      6.771e-005    0.930    1.691e-001    2.584e-002    
10.400   6.552    18.000      6.670         1.430     3.848    0.861      7.360e-005    0.924    1.641e-001    2.479e-002    
10.400   6.536    18.000      6.654         1.479     3.864    0.860      7.955e-005    0.918    1.883e-001    2.438e-002    
10.400   6.519    18.000      6.637         1.528     3.881    0.859      8.549e-005    0.911    2.320e-001    2.584e-002    
10.400   6.502    18.000      6.619         1.578     3.898    0.858      9.145e-005    0.905    2.483e-001    2.752e-002    
10.400   6.484    18.000      6.601         1.628     3.916    0.857      9.739e-005    0.898    2.925e-001    3.076e-002    
10.400   6.467    18.000      6.584         1.677     3.933    0.856      1.031e-004    0.892    2.864e-001    3.106e-002    
10.400   6.449    18.000      6.565         1.729     3.951    0.855      1.090e-004    0.885    2.461e-001    2.902e-002    
10.400   6.431    18.000      6.547         1.782     3.969    0.854      1.150e-004    0.879    3.358e-001    3.234e-002    
10.400   6.412    18.000      6.528         1.836     3.988    0.853      1.209e-004    0.872    3.742e-001    3.081e-002    
10.400   6.393    18.000      6.508         1.891     4.007    0.852      1.269e-004    0.866    3.133e-001    2.851e-002    
10.400   6.374    18.000      6.489         1.946     4.026    0.851      1.328e-004    0.859    4.247e-001    3.369e-002    
10.400   6.355    18.000      6.470         2.002     4.045    0.850      1.388e-004    0.852    4.152e-001    3.415e-002    
10.400   6.335    18.000      6.449         2.059     4.065    0.848      1.447e-004    0.845    5.090e-001    3.826e-002    
10.400   6.315    18.000      6.429         2.117     4.085    0.847      1.506e-004    0.839    4.794e-001    3.916e-002    
10.400   6.295    18.000      6.408         2.176     4.105    0.846      1.565e-004    0.832    5.189e-001    4.009e-002    
10.400   6.275    18.000      6.388         2.235     4.125    0.845      1.624e-004    0.825    5.574e-001    3.994e-002    
10.400   6.254    18.000      6.367         2.295     4.146    0.843      1.682e-004    0.818    5.493e-001    4.078e-002    
10.400   6.233    18.000      6.345         2.353     4.167    0.842      1.736e-004    0.811    5.589e-001    4.517e-002    
10.400   6.212    18.000      6.324         2.415     4.188    0.841      1.794e-004    0.805    6.109e-001    4.937e-002    
10.400   6.190    18.000      6.302         2.477     4.210    0.839      1.851e-004    0.798    8.082e-001    6.118e-002    
10.400   6.168    18.000      6.279         2.541     4.232    0.838      1.908e-004    0.791    7.921e-001    5.943e-002    
10.400   6.146    18.000      6.257         2.605     4.254    0.837      1.965e-004    0.784    8.237e-001    5.620e-002    
10.400   6.124    18.000      6.234         2.670     4.276    0.835      2.021e-004    0.777    8.183e-001    5.804e-002    
10.400   6.101    18.000      6.211         2.736     4.299    0.834      2.076e-004    0.770    9.556e-001    6.401e-002    
10.400   6.078    18.000      6.188         2.802     4.322    0.832      2.132e-004    0.763    1.044e+000    6.766e-002    
10.400   6.055    18.000      6.164         2.870     4.345    0.831      2.187e-004    0.756    1.029e+000    6.668e-002    
10.400   6.032    18.000      6.141         2.938     4.368    0.829      2.241e-004    0.749    1.218e+000    6.392e-002    
10.400   6.008    18.000      6.116         3.007     4.392    0.828      2.295e-004    0.742    1.118e+000    5.756e-002    
10.400   5.984    18.000      6.092         3.077     4.416    0.826      2.348e-004    0.735    1.247e+000    6.016e-002    
10.400   5.960    18.000      6.067         3.147     4.440    0.824      2.401e-004    0.728    1.219e+000    5.857e-002    
10.400   5.935    18.000      6.042         3.218     4.465    0.823      2.452e-004    0.721    1.355e+000    6.392e-002    
10.400   5.910    18.000      6.017         3.291     4.490    0.821      2.504e-004    0.714    1.493e+000    6.789e-002    
10.400   5.885    18.000      5.991         3.364     4.515    0.819      2.554e-004    0.707    1.336e+000    6.634e-002    
10.400   5.860    18.000      5.966         3.434     4.540    0.817      2.601e-004    0.700    1.610e+000    7.888e-002    
10.400   5.834    18.000      5.939         3.508     4.566    0.815      2.650e-004    0.693    1.593e+000    8.741e-002    
10.400   5.808    18.000      5.913         3.583     4.592    0.814      2.699e-004    0.686    1.754e+000    1.145e-001    
10.400   5.782    18.000      5.886         3.660     4.618    0.812      2.747e-004    0.679    1.560e+000    1.507e-001    
10.400   5.755    18.000      5.859         3.736     4.645    0.810      2.794e-004    0.672    2.131e+000    3.713e-001    
10.400   5.701    18.000      5.804         3.893     4.699    0.806      2.886e-004    0.658    1.831e+000    5.005e-001    
10.400   5.674    18.000      5.776         3.972     4.726    0.804      2.932e-004    0.651    2.104e+000    2.171e-001    
13.300   7.387    18.000      9.617         2.359     5.913    0.811      8.920e-005    0.867    1.075e-001    1.440e-002    
13.300   7.368    18.000      9.592         2.421     5.932    0.810      9.239e-005    0.862    1.061e-001    1.214e-002    
13.300   7.348    18.000      9.566         2.484     5.952    0.809      9.557e-005    0.856    1.090e-001    1.104e-002    
13.300   7.328    18.000      9.540         2.547     5.972    0.808      9.876e-005    0.851    1.239e-001    1.024e-002    
13.300   7.308    18.000      9.514         2.608     5.992    0.807      1.018e-004    0.846    1.681e-001    1.081e-002    
13.300   7.288    18.000      9.488         2.673     6.012    0.806      1.050e-004    0.841    1.361e-001    9.463e-003    
13.300   7.267    18.000      9.461         2.739     6.033    0.804      1.081e-004    0.836    1.626e-001    9.299e-003    
13.300   7.246    18.000      9.434         2.806     6.054    0.803      1.113e-004    0.830    1.652e-001    9.275e-003    
13.300   7.225    18.000      9.406         2.873     6.075    0.802      1.145e-004    0.825    1.805e-001    9.167e-003    
13.300   7.204    18.000      9.379         2.941     6.096    0.801      1.177e-004    0.820    1.975e-001    9.609e-003    
13.300   7.182    18.000      9.350         3.010     6.118    0.799      1.208e-004    0.814    2.059e-001    9.859e-003    
13.300   7.160    18.000      9.322         3.080     6.140    0.798      1.239e-004    0.809    2.206e-001    1.062e-002    
13.300   7.138    18.000      9.293         3.151     6.162    0.797      1.271e-004    0.804    2.112e-001    1.041e-002    
13.300   7.116    18.000      9.264         3.222     6.184    0.795      1.302e-004    0.798    2.237e-001    1.059e-002    
13.300   7.093    18.000      9.234         3.294     6.207    0.794      1.333e-004    0.793    2.428e-001    1.104e-002    
13.300   7.070    18.000      9.204         3.367     6.230    0.793      1.364e-004    0.787    2.564e-001    1.109e-002    
13.300   7.047    18.000      9.174         3.441     6.253    0.791      1.395e-004    0.782    2.745e-001    1.101e-002    
13.300   7.024    18.000      9.145         3.516     6.276    0.790      1.426e-004    0.776    2.819e-001    1.117e-002    
13.300   7.000    18.000      9.113         3.587     6.300    0.788      1.455e-004    0.771    3.205e-001    1.251e-002    
13.300   6.976    18.000      9.082         3.663     6.324    0.787      1.485e-004    0.765    3.245e-001    1.291e-002    
13.300   6.952    18.000      9.051         3.740     6.348    0.785      1.515e-004    0.760    3.599e-001    1.379e-002    
13.300   6.928    18.000      9.020         3.818     6.372    0.784      1.546e-004    0.754    3.563e-001    1.374e-002    
13.300   6.903    18.000      8.987         3.897     6.397    0.782      1.575e-004    0.749    3.854e-001    1.474e-002    
13.300   6.878    18.000      8.954         3.976     6.422    0.780      1.605e-004    0.743    3.996e-001    1.649e-002    
16.000   8.040    18.000      12.592        3.226     7.960    0.768      7.938e-005    0.843    5.570e-002    6.677e-003    
16.000   8.019    18.000      12.559        3.298     7.981    0.767      8.141e-005    0.839    5.554e-002    5.632e-003    
16.000   7.998    18.000      12.526        3.371     8.002    0.765      8.345e-005    0.834    6.075e-002    5.229e-003    
16.000   7.977    18.000      12.494        3.445     8.023    0.764      8.549e-005    0.830    7.207e-002    5.088e-003    
16.000   7.955    18.000      12.459        3.519     8.045    0.763      8.752e-005    0.825    7.932e-002    4.844e-003    
16.000   7.933    18.000      12.425        3.591     8.067    0.762      8.942e-005    0.821    7.797e-002    4.583e-003    
16.000   7.911    18.000      12.390        3.667     8.089    0.760      9.145e-005    0.816    8.410e-002    4.732e-003    
16.000   7.889    18.000      12.356        3.744     8.111    0.759      9.349e-005    0.812    8.332e-002    4.691e-003    
16.000   7.867    18.000      12.321        3.822     8.133    0.758      9.553e-005    0.807    8.811e-002    4.768e-003    
16.000   7.844    18.000      12.285        3.901     8.156    0.757      9.754e-005    0.803    1.033e-001    5.144e-003    
16.000   7.821    18.000      12.249        3.980     8.179    0.755      9.956e-005    0.798    1.070e-001    5.203e-003    
19.500   9.173    18.000      17.509        2.749     10.327   0.738      3.770e-005    0.903    9.585e-003    5.441e-003    
19.500   9.156    18.000      17.477        2.816     10.344   0.737      3.892e-005    0.900    1.380e-002    5.510e-003    
19.500   9.138    18.000      17.443        2.883     10.362   0.736      4.014e-005    0.897    1.023e-002    4.098e-003    
19.500   9.120    18.000      17.408        2.952     10.380   0.735      4.136e-005    0.894    1.940e-002    5.182e-003    
19.500   9.102    18.000      17.374        3.021     10.398   0.734      4.260e-005    0.890    9.138e-003    2.992e-003    
19.500   9.084    18.000      17.340        3.087     10.416   0.733      4.377e-005    0.887    1.458e-002    3.356e-003    
19.500   9.065    18.000      17.303        3.158     10.435   0.732      4.501e-005    0.884    1.332e-002    2.894e-003    
19.500   9.046    18.000      17.267        3.229     10.454   0.731      4.625e-005    0.880    1.329e-002    2.651e-003    
19.500   9.027    18.000      17.231        3.301     10.473   0.730      4.750e-005    0.877    1.122e-002    2.331e-003    
19.500   9.008    18.000      17.194        3.375     10.492   0.729      4.876e-005    0.873    1.760e-002    2.765e-003    
19.500   8.989    18.000      17.158        3.448     10.511   0.728      5.002e-005    0.870    1.676e-002    2.477e-003    
19.500   8.969    18.000      17.120        3.523     10.531   0.727      5.128e-005    0.866    1.595e-002    2.390e-003    
19.500   8.949    18.000      17.082        3.599     10.551   0.726      5.255e-005    0.863    2.037e-002    2.567e-003    
19.500   8.929    18.000      17.044        3.675     10.571   0.725      5.382e-005    0.859    1.882e-002    2.366e-003    
19.500   8.909    18.000      17.005        3.752     10.591   0.724      5.509e-005    0.856    2.818e-002    2.867e-003    
19.500   8.888    18.000      16.965        3.830     10.612   0.723      5.636e-005    0.852    2.170e-002    2.491e-003    
19.500   8.868    18.000      16.927        3.905     10.632   0.722      5.757e-005    0.848    2.734e-002    2.811e-003    
19.500   8.847    18.000      16.887        3.984     10.653   0.721      5.885e-005    0.845    2.307e-002    2.649e-003    
19.500   7.819    20.600      19.498        3.301     11.681   0.654      2.838e-005    0.889    9.746e-003    2.743e-003    
19.500   7.803    20.600      19.458        3.375     11.697   0.653      2.916e-005    0.886    7.148e-003    1.901e-003    
19.500   7.786    20.600      19.416        3.448     11.714   0.652      2.994e-005    0.883    6.041e-003    1.489e-003    
19.500   7.769    20.600      19.373        3.523     11.731   0.651      3.072e-005    0.880    7.970e-003    1.561e-003    
19.500   7.752    20.600      19.331        3.599     11.748   0.650      3.150e-005    0.877    7.528e-003    1.397e-003    
19.500   7.734    20.600      19.286        3.675     11.766   0.649      3.229e-005    0.873    1.079e-002    1.421e-003    
19.500   7.717    20.600      19.244        3.752     11.783   0.648      3.308e-005    0.870    8.647e-003    1.177e-003    
19.500   7.699    20.600      19.199        3.830     11.801   0.647      3.388e-005    0.867    1.070e-002    1.237e-003    
19.500   7.681    20.600      19.154        3.905     11.819   0.646      3.463e-005    0.864    1.169e-002    1.248e-003    
19.500   7.663    20.600      19.109        3.984     11.837   0.645      3.543e-005    0.860    1.207e-002    1.283e-003    
