#
# Source: https://hallcweb.jlab.org/resdata/database/
# JLAB experiment ? deuterium. 
# Uncertainty values shown reflect both systematic and statistical uncertainties.
#
# E      EP       Theta       Q^2           W^2       Nu       Epsilon    Gamma         x        Sigma         Uncertainty
# (Gev)  (Gev)    (degrees)   ((Gev/c)^2)   (Gev^2)   (Gev)                                      (nb/Ser*Gev)
#
2.445    0.705    20.000      0.208         3.936     1.740    0.508      1.698e-003    0.064    3.151e+002    1.039e+001    
2.445    0.715    20.000      0.211         3.915     1.730    0.514      1.707e-003    0.065    3.077e+002    1.017e+001    
2.445    0.725    20.000      0.214         3.893     1.720    0.520      1.716e-003    0.066    3.099e+002    1.025e+001    
2.445    0.735    20.000      0.217         3.871     1.710    0.526      1.725e-003    0.068    3.099e+002    1.024e+001    
2.445    0.745    20.000      0.220         3.850     1.700    0.532      1.734e-003    0.069    3.067e+002    1.014e+001    
2.445    0.755    20.000      0.223         3.828     1.690    0.538      1.743e-003    0.070    3.211e+002    1.061e+001    
2.445    0.765    20.000      0.226         3.806     1.680    0.543      1.752e-003    0.072    3.208e+002    1.060e+001    
2.445    0.775    20.000      0.229         3.784     1.670    0.549      1.760e-003    0.073    3.361e+002    1.112e+001    
2.445    0.785    20.000      0.231         3.763     1.660    0.555      1.770e-003    0.074    3.256e+002    1.076e+001    
2.445    0.795    20.000      0.234         3.741     1.650    0.560      1.779e-003    0.076    3.185e+002    1.055e+001    
2.445    0.805    20.000      0.237         3.719     1.640    0.566      1.788e-003    0.077    2.589e+002    1.004e+001    
2.445    0.815    20.000      0.240         3.698     1.630    0.572      1.797e-003    0.079    3.362e+002    1.096e+001    
2.445    0.835    20.000      0.246         3.654     1.610    0.582      1.816e-003    0.081    3.339e+002    1.194e+001    
2.445    0.845    20.000      0.249         3.632     1.600    0.588      1.825e-003    0.083    3.262e+002    1.168e+001    
2.445    0.855    20.000      0.252         3.611     1.590    0.593      1.835e-003    0.084    3.316e+002    1.185e+001    
2.445    0.865    20.000      0.255         3.589     1.580    0.598      1.844e-003    0.086    3.366e+002    1.203e+001    
2.445    0.875    20.000      0.258         3.567     1.570    0.604      1.854e-003    0.088    3.442e+002    1.229e+001    
2.445    0.885    20.000      0.261         3.546     1.560    0.609      1.863e-003    0.089    3.358e+002    1.200e+001    
2.445    0.895    20.000      0.264         3.524     1.550    0.614      1.873e-003    0.091    3.474e+002    1.243e+001    
2.445    0.905    20.000      0.267         3.502     1.540    0.619      1.882e-003    0.092    3.534e+002    1.263e+001    
2.445    0.915    20.000      0.270         3.481     1.530    0.624      1.892e-003    0.094    3.382e+002    1.212e+001    
2.445    0.925    20.000      0.273         3.459     1.520    0.629      1.902e-003    0.096    3.365e+002    1.212e+001    
2.445    0.935    20.000      0.276         3.437     1.510    0.634      1.911e-003    0.097    3.342e+002    1.209e+001    
2.445    0.955    20.000      0.281         3.394     1.490    0.644      1.931e-003    0.101    2.488e+002    1.026e+001    
2.445    0.965    20.000      0.284         3.372     1.480    0.649      1.940e-003    0.102    3.484e+002    1.181e+001    
2.445    0.975    20.000      0.287         3.350     1.470    0.654      1.950e-003    0.104    3.482e+002    1.182e+001    
2.445    0.985    20.000      0.290         3.329     1.460    0.658      1.960e-003    0.106    3.543e+002    1.201e+001    
2.445    0.995    20.000      0.293         3.307     1.450    0.663      1.970e-003    0.108    3.497e+002    1.185e+001    
2.445    1.005    20.000      0.296         3.285     1.440    0.668      1.979e-003    0.110    3.544e+002    1.200e+001    
2.445    1.015    20.000      0.299         3.263     1.430    0.672      1.989e-003    0.111    3.658e+002    1.241e+001    
2.445    1.025    20.000      0.302         3.242     1.420    0.677      1.999e-003    0.113    3.659e+002    1.240e+001    
2.445    1.035    20.000      0.305         3.220     1.410    0.681      2.008e-003    0.115    3.646e+002    1.234e+001    
2.445    1.045    20.000      0.308         3.198     1.400    0.686      2.017e-003    0.117    3.861e+002    1.309e+001    
2.445    1.055    20.000      0.311         3.177     1.390    0.690      2.028e-003    0.119    3.878e+002    1.315e+001    
2.445    1.065    20.000      0.314         3.155     1.380    0.695      2.037e-003    0.121    3.876e+002    1.313e+001    
2.445    1.075    20.000      0.317         3.133     1.370    0.699      2.046e-003    0.123    3.856e+002    1.308e+001    
2.445    1.085    20.000      0.320         3.112     1.360    0.703      2.056e-003    0.125    3.915e+002    1.330e+001    
2.445    1.095    20.000      0.323         3.090     1.350    0.708      2.066e-003    0.127    4.057e+002    1.379e+001    
2.445    1.105    20.000      0.326         3.068     1.340    0.712      2.075e-003    0.130    4.209e+002    1.394e+001    
2.445    1.125    20.000      0.332         3.025     1.320    0.720      2.094e-003    0.134    4.131e+002    1.427e+001    
2.445    1.135    20.000      0.335         3.003     1.310    0.724      2.103e-003    0.136    4.128e+002    1.428e+001    
2.445    1.145    20.000      0.338         2.981     1.300    0.728      2.112e-003    0.138    4.123e+002    1.426e+001    
2.445    1.155    20.000      0.341         2.960     1.290    0.732      2.121e-003    0.141    4.306e+002    1.486e+001    
2.445    1.165    20.000      0.343         2.938     1.280    0.736      2.130e-003    0.143    4.366e+002    1.505e+001    
2.445    1.175    20.000      0.346         2.916     1.270    0.740      2.139e-003    0.145    4.397e+002    1.517e+001    
2.445    1.185    20.000      0.349         2.894     1.260    0.744      2.147e-003    0.148    4.561e+002    1.575e+001    
2.445    1.195    20.000      0.352         2.873     1.250    0.747      2.156e-003    0.150    4.555e+002    1.570e+001    
2.445    1.205    20.000      0.355         2.851     1.240    0.751      2.165e-003    0.153    4.518e+002    1.557e+001    
2.445    1.215    20.000      0.358         2.829     1.230    0.755      2.173e-003    0.155    4.755e+002    1.641e+001    
2.445    1.225    20.000      0.361         2.808     1.220    0.758      2.182e-003    0.158    4.736e+002    1.637e+001    
2.445    1.235    20.000      0.364         2.786     1.210    0.762      2.189e-003    0.160    4.777e+002    1.649e+001    
2.445    1.245    20.000      0.367         2.764     1.200    0.766      2.197e-003    0.163    4.574e+002    1.579e+001    
2.445    1.255    20.000      0.370         2.742     1.190    0.769      2.204e-003    0.166    4.703e+002    1.626e+001    
2.445    1.265    20.000      0.373         2.721     1.180    0.773      2.213e-003    0.168    4.721e+002    1.636e+001    
2.445    1.285    20.000      0.379         2.677     1.160    0.779      2.226e-003    0.174    4.807e+002    1.588e+001    
2.445    1.295    20.000      0.382         2.656     1.150    0.783      2.234e-003    0.177    4.897e+002    1.658e+001    
2.445    1.305    20.000      0.385         2.634     1.140    0.786      2.240e-003    0.180    4.752e+002    1.679e+001    
2.445    1.315    20.000      0.388         2.612     1.130    0.789      2.246e-003    0.183    4.516e+002    1.603e+001    
2.445    1.325    20.000      0.391         2.591     1.120    0.792      2.253e-003    0.186    4.600e+002    1.629e+001    
2.445    1.335    20.000      0.394         2.569     1.110    0.796      2.259e-003    0.189    4.524e+002    1.601e+001    
2.445    1.345    20.000      0.397         2.547     1.100    0.799      2.264e-003    0.192    4.635e+002    1.641e+001    
2.445    1.355    20.000      0.399         2.525     1.090    0.802      2.269e-003    0.195    4.608e+002    1.627e+001    
2.445    1.365    20.000      0.402         2.504     1.080    0.805      2.275e-003    0.199    4.565e+002    1.619e+001    
2.445    1.375    20.000      0.405         2.482     1.070    0.808      2.279e-003    0.202    4.898e+002    1.730e+001    
2.445    1.385    20.000      0.408         2.460     1.060    0.811      2.283e-003    0.205    4.738e+002    1.675e+001    
2.445    1.395    20.000      0.411         2.439     1.050    0.814      2.288e-003    0.209    4.887e+002    1.723e+001    
2.445    1.405    20.000      0.414         2.417     1.040    0.817      2.291e-003    0.212    5.117e+002    1.807e+001    
2.445    1.415    20.000      0.417         2.395     1.030    0.819      2.293e-003    0.216    5.318e+002    1.899e+001    
2.445    1.425    20.000      0.420         2.373     1.020    0.822      2.296e-003    0.219    5.311e+002    1.767e+001    
2.445    1.435    20.000      0.423         2.352     1.010    0.825      2.299e-003    0.223    5.362e+002    1.786e+001    
2.445    1.445    20.000      0.426         2.330     1.000    0.828      2.300e-003    0.227    5.475e+002    1.822e+001    
2.445    1.455    20.000      0.429         2.308     0.990    0.830      2.301e-003    0.231    5.505e+002    1.836e+001    
2.445    1.465    20.000      0.432         2.287     0.980    0.833      2.303e-003    0.235    5.486e+002    1.831e+001    
2.445    1.475    20.000      0.435         2.265     0.970    0.836      2.303e-003    0.239    5.543e+002    1.851e+001    
2.445    1.485    20.000      0.438         2.243     0.960    0.838      2.302e-003    0.243    5.559e+002    1.855e+001    
2.445    1.495    20.000      0.441         2.221     0.950    0.841      2.300e-003    0.247    5.593e+002    1.869e+001    
2.445    1.515    20.000      0.447         2.178     0.930    0.846      2.297e-003    0.256    5.028e+002    1.805e+001    
2.445    1.525    20.000      0.450         2.156     0.920    0.848      2.294e-003    0.260    5.242e+002    1.876e+001    
2.445    1.535    20.000      0.453         2.135     0.910    0.850      2.292e-003    0.265    4.895e+002    1.755e+001    
2.445    1.545    20.000      0.456         2.113     0.900    0.853      2.287e-003    0.270    4.827e+002    1.727e+001    
2.445    1.555    20.000      0.458         2.091     0.890    0.855      2.282e-003    0.274    4.718e+002    1.695e+001    
2.445    1.565    20.000      0.461         2.070     0.880    0.857      2.278e-003    0.279    4.642e+002    1.671e+001    
2.445    1.575    20.000      0.464         2.048     0.870    0.859      2.271e-003    0.284    4.666e+002    1.582e+001    
2.445    1.585    20.000      0.467         2.026     0.860    0.862      2.263e-003    0.289    4.395e+002    1.470e+001    
2.445    1.595    20.000      0.470         2.004     0.850    0.864      2.255e-003    0.295    4.355e+002    1.457e+001    
2.445    1.605    20.000      0.473         1.983     0.840    0.866      2.247e-003    0.300    4.127e+002    1.384e+001    
2.445    1.615    20.000      0.476         1.961     0.830    0.868      2.237e-003    0.306    4.230e+002    1.418e+001    
2.445    1.625    20.000      0.479         1.939     0.820    0.870      2.226e-003    0.311    4.171e+002    1.401e+001    
2.445    1.635    20.000      0.482         1.918     0.810    0.872      2.216e-003    0.317    4.135e+002    1.389e+001    
2.445    1.645    20.000      0.485         1.896     0.800    0.874      2.203e-003    0.323    4.232e+002    1.421e+001    
2.445    1.655    20.000      0.488         1.874     0.790    0.876      2.188e-003    0.329    4.255e+002    1.431e+001    
2.445    1.675    20.000      0.494         1.831     0.770    0.880      2.159e-003    0.342    4.383e+002    1.551e+001    
2.445    1.685    20.000      0.497         1.809     0.760    0.881      2.142e-003    0.348    4.501e+002    1.594e+001    
2.445    1.695    20.000      0.500         1.787     0.750    0.883      2.123e-003    0.355    4.735e+002    1.671e+001    
2.445    1.705    20.000      0.503         1.766     0.740    0.885      2.106e-003    0.362    4.806e+002    1.694e+001    
2.445    1.715    20.000      0.506         1.744     0.730    0.887      2.084e-003    0.369    4.943e+002    1.738e+001    
2.445    1.725    20.000      0.508         1.722     0.720    0.888      2.062e-003    0.376    5.359e+002    1.876e+001    
2.445    1.735    20.000      0.511         1.700     0.710    0.890      2.039e-003    0.384    5.574e+002    1.953e+001    
2.445    1.755    20.000      0.517         1.657     0.690    0.893      1.990e-003    0.400    6.279e+002    2.092e+001    
2.445    1.765    20.000      0.520         1.635     0.680    0.895      1.963e-003    0.408    6.512e+002    2.169e+001    
2.445    1.775    20.000      0.523         1.614     0.670    0.896      1.936e-003    0.416    6.782e+002    2.260e+001    
2.445    1.785    20.000      0.526         1.592     0.660    0.898      1.906e-003    0.425    7.240e+002    2.407e+001    
2.445    1.795    20.000      0.529         1.570     0.650    0.899      1.874e-003    0.434    7.542e+002    2.509e+001    
2.445    1.805    20.000      0.532         1.549     0.640    0.901      1.844e-003    0.443    8.043e+002    2.675e+001    
2.445    1.815    20.000      0.535         1.527     0.630    0.902      1.809e-003    0.453    8.343e+002    2.775e+001    
2.445    1.825    20.000      0.538         1.505     0.620    0.904      1.772e-003    0.462    8.332e+002    2.771e+001    
2.445    1.835    20.000      0.541         1.483     0.610    0.905      1.734e-003    0.473    8.558e+002    2.851e+001    
2.445    1.845    20.000      0.544         1.462     0.600    0.906      1.698e-003    0.483    8.728e+002    2.950e+001    
2.445    1.855    20.000      0.547         1.440     0.590    0.908      1.656e-003    0.494    7.809e+002    2.827e+001    
2.445    1.865    20.000      0.550         1.418     0.580    0.909      1.613e-003    0.505    7.305e+002    2.672e+001    
2.445    1.875    20.000      0.553         1.397     0.570    0.910      1.572e-003    0.517    7.252e+002    4.301e+001    
2.445    1.885    20.000      0.556         1.375     0.560    0.911      1.525e-003    0.529    6.290e+002    3.738e+001    
2.445    1.895    20.000      0.559         1.353     0.550    0.913      1.477e-003    0.541    5.702e+002    3.400e+001    
2.445    1.905    20.000      0.562         1.331     0.540    0.914      1.427e-003    0.554    5.065e+002    3.028e+001    
2.445    1.915    20.000      0.565         1.310     0.530    0.915      1.379e-003    0.568    4.319e+002    2.591e+001    
2.445    1.925    20.000      0.568         1.288     0.520    0.916      1.325e-003    0.582    3.390e+002    2.049e+001    
2.445    1.935    20.000      0.570         1.266     0.510    0.917      1.270e-003    0.596    2.585e+002    1.574e+001    
2.445    1.945    20.000      0.573         1.245     0.500    0.918      1.216e-003    0.611    1.906e+002    1.125e+001    
2.445    1.955    20.000      0.576         1.223     0.490    0.919      1.157e-003    0.627    1.188e+002    7.048e+000    
2.445    1.965    20.000      0.579         1.201     0.480    0.920      1.096e-003    0.643    6.873e+001    4.125e+000    
2.445    1.975    20.000      0.582         1.180     0.470    0.921      1.037e-003    0.660    3.435e+001    2.105e+000    
2.445    0.585    30.000      0.383         3.986     1.860    0.410      6.476e-004    0.110    1.047e+002    3.866e+000    
2.445    0.595    30.000      0.390         3.961     1.850    0.416      6.489e-004    0.112    1.024e+002    3.770e+000    
2.445    0.605    30.000      0.396         3.936     1.840    0.422      6.504e-004    0.115    1.043e+002    3.815e+000    
2.445    0.615    30.000      0.403         3.910     1.830    0.428      6.515e-004    0.117    1.024e+002    3.740e+000    
2.445    0.625    30.000      0.409         3.885     1.820    0.434      6.530e-004    0.120    1.031e+002    3.763e+000    
2.445    0.635    30.000      0.416         3.860     1.810    0.440      6.543e-004    0.122    1.011e+002    3.689e+000    
2.445    0.645    30.000      0.422         3.834     1.800    0.445      6.554e-004    0.125    1.032e+002    3.763e+000    
2.445    0.655    30.000      0.429         3.809     1.790    0.451      6.567e-004    0.128    9.781e+001    3.593e+000    
2.445    0.665    30.000      0.436         3.784     1.780    0.457      6.580e-004    0.130    1.005e+002    3.693e+000    
2.445    0.675    30.000      0.442         3.758     1.770    0.463      6.590e-004    0.133    1.016e+002    3.731e+000    
2.445    0.685    30.000      0.449         3.733     1.760    0.468      6.603e-004    0.136    1.015e+002    3.745e+000    
2.445    0.695    30.000      0.455         3.708     1.750    0.474      6.615e-004    0.139    1.019e+002    3.763e+000    
2.445    0.705    30.000      0.462         3.683     1.740    0.480      6.627e-004    0.141    1.021e+002    3.784e+000    
2.445    0.715    30.000      0.468         3.657     1.730    0.485      6.637e-004    0.144    1.036e+002    3.678e+000    
2.445    0.725    30.000      0.475         3.632     1.720    0.491      6.647e-004    0.147    1.022e+002    3.494e+000    
2.445    0.735    30.000      0.481         3.607     1.710    0.496      6.659e-004    0.150    1.001e+002    3.423e+000    
2.445    0.745    30.000      0.488         3.581     1.700    0.501      6.666e-004    0.153    9.666e+001    3.313e+000    
2.445    0.755    30.000      0.494         3.556     1.690    0.507      6.677e-004    0.156    9.869e+001    3.377e+000    
2.445    0.765    30.000      0.501         3.531     1.680    0.512      6.686e-004    0.159    9.945e+001    3.404e+000    
2.445    0.785    30.000      0.514         3.480     1.660    0.523      6.702e-004    0.165    9.529e+001    3.499e+000    
2.445    0.795    30.000      0.521         3.455     1.650    0.528      6.711e-004    0.168    9.746e+001    3.580e+000    
2.445    0.805    30.000      0.527         3.429     1.640    0.533      6.716e-004    0.171    9.826e+001    3.611e+000    
2.445    0.815    30.000      0.534         3.404     1.630    0.538      6.724e-004    0.174    9.628e+001    3.559e+000    
2.445    0.825    30.000      0.540         3.379     1.620    0.543      6.731e-004    0.178    1.006e+002    3.705e+000    
2.445    0.835    30.000      0.547         3.354     1.610    0.548      6.737e-004    0.181    9.418e+001    3.511e+000    
2.445    0.845    30.000      0.553         3.328     1.600    0.553      6.740e-004    0.184    9.533e+001    3.557e+000    
2.445    0.855    30.000      0.560         3.303     1.590    0.558      6.746e-004    0.188    9.376e+001    3.508e+000    
2.445    0.865    30.000      0.567         3.278     1.580    0.563      6.751e-004    0.191    9.924e+001    3.703e+000    
2.445    0.875    30.000      0.573         3.252     1.570    0.568      6.753e-004    0.194    1.013e+002    3.778e+000    
2.445    0.885    30.000      0.580         3.227     1.560    0.573      6.756e-004    0.198    1.025e+002    3.574e+000    
2.445    0.895    30.000      0.586         3.202     1.550    0.577      6.759e-004    0.201    1.005e+002    3.441e+000    
2.445    0.905    30.000      0.593         3.176     1.540    0.582      6.758e-004    0.205    9.970e+001    3.418e+000    
2.445    0.915    30.000      0.599         3.151     1.530    0.587      6.760e-004    0.209    1.016e+002    3.472e+000    
2.445    0.925    30.000      0.606         3.126     1.520    0.591      6.761e-004    0.212    1.003e+002    3.428e+000    
2.445    0.935    30.000      0.612         3.100     1.510    0.596      6.759e-004    0.216    9.828e+001    3.362e+000    
2.445    0.945    30.000      0.619         3.075     1.500    0.600      6.758e-004    0.220    1.017e+002    3.476e+000    
2.445    0.965    30.000      0.632         3.025     1.480    0.609      6.755e-004    0.228    9.663e+001    3.524e+000    
2.445    0.975    30.000      0.638         2.999     1.470    0.614      6.749e-004    0.231    1.017e+002    3.694e+000    
2.445    0.985    30.000      0.645         2.974     1.460    0.618      6.745e-004    0.235    1.047e+002    3.805e+000    
2.445    0.995    30.000      0.652         2.949     1.450    0.622      6.740e-004    0.239    1.004e+002    3.669e+000    
2.445    1.005    30.000      0.658         2.923     1.440    0.627      6.731e-004    0.244    1.031e+002    3.766e+000    
2.445    1.015    30.000      0.665         2.898     1.430    0.631      6.725e-004    0.248    1.026e+002    3.756e+000    
2.445    1.025    30.000      0.671         2.873     1.420    0.635      6.717e-004    0.252    1.041e+002    3.817e+000    
2.445    1.035    30.000      0.678         2.847     1.410    0.639      6.705e-004    0.256    1.021e+002    3.521e+000    
2.445    1.045    30.000      0.684         2.822     1.400    0.643      6.696e-004    0.261    1.026e+002    3.529e+000    
2.445    1.055    30.000      0.691         2.797     1.390    0.647      6.685e-004    0.265    1.015e+002    3.491e+000    
2.445    1.065    30.000      0.698         2.771     1.380    0.651      6.670e-004    0.269    1.023e+002    3.515e+000    
2.445    1.075    30.000      0.704         2.746     1.370    0.655      6.657e-004    0.274    1.011e+002    3.468e+000    
2.445    1.085    30.000      0.711         2.721     1.360    0.659      6.643e-004    0.278    1.006e+002    3.455e+000    
2.445    1.095    30.000      0.717         2.695     1.350    0.663      6.624e-004    0.283    9.566e+001    3.285e+000    
2.445    1.105    30.000      0.724         2.670     1.340    0.667      6.608e-004    0.288    9.997e+001    3.434e+000    
2.445    1.115    30.000      0.730         2.645     1.330    0.670      6.590e-004    0.293    9.809e+001    3.370e+000    
2.445    1.125    30.000      0.737         2.620     1.320    0.674      6.571e-004    0.297    9.217e+001    3.174e+000    
2.445    1.135    30.000      0.743         2.594     1.310    0.678      6.547e-004    0.302    9.409e+001    3.240e+000    
2.445    1.145    30.000      0.750         2.569     1.300    0.682      6.525e-004    0.307    9.204e+001    3.178e+000    
2.445    1.155    30.000      0.756         2.544     1.290    0.685      6.503e-004    0.312    9.008e+001    3.116e+000    
2.445    1.165    30.000      0.763         2.518     1.280    0.689      6.474e-004    0.318    9.258e+001    3.206e+000    
2.445    1.175    30.000      0.769         2.493     1.270    0.692      6.448e-004    0.323    9.483e+001    3.362e+000    
2.445    1.185    30.000      0.776         2.468     1.260    0.696      6.421e-004    0.328    9.481e+001    3.576e+000    
2.445    1.195    30.000      0.783         2.442     1.250    0.699      6.388e-004    0.334    9.127e+001    3.277e+000    
2.445    1.205    30.000      0.789         2.417     1.240    0.703      6.358e-004    0.339    9.494e+001    3.309e+000    
2.445    1.215    30.000      0.796         2.392     1.230    0.706      6.325e-004    0.345    9.570e+001    3.331e+000    
2.445    1.225    30.000      0.802         2.366     1.220    0.709      6.287e-004    0.350    9.541e+001    3.324e+000    
2.445    1.235    30.000      0.809         2.341     1.210    0.712      6.252e-004    0.356    9.418e+001    3.280e+000    
2.445    1.245    30.000      0.815         2.316     1.200    0.716      6.215e-004    0.362    9.518e+001    3.317e+000    
2.445    1.255    30.000      0.822         2.291     1.190    0.719      6.176e-004    0.368    9.736e+001    3.389e+000    
2.445    1.265    30.000      0.828         2.265     1.180    0.722      6.131e-004    0.374    9.454e+001    3.293e+000    
2.445    1.275    30.000      0.835         2.240     1.170    0.725      6.088e-004    0.380    9.225e+001    3.216e+000    
2.445    1.285    30.000      0.842         2.215     1.160    0.728      6.043e-004    0.387    9.206e+001    3.209e+000    
2.445    1.295    30.000      0.848         2.189     1.150    0.731      5.992e-004    0.393    8.689e+001    3.042e+000    
2.445    1.305    30.000      0.855         2.164     1.140    0.734      5.944e-004    0.399    8.596e+001    3.004e+000    
2.445    1.315    30.000      0.861         2.139     1.130    0.737      5.893e-004    0.406    7.924e+001    2.780e+000    
2.445    1.325    30.000      0.868         2.113     1.120    0.740      5.836e-004    0.413    7.555e+001    2.664e+000    
2.445    1.335    30.000      0.874         2.088     1.110    0.743      5.782e-004    0.420    7.493e+001    2.642e+000    
2.445    1.345    30.000      0.881         2.063     1.100    0.746      5.725e-004    0.427    6.950e+001    2.460e+000    
2.445    1.355    30.000      0.887         2.037     1.090    0.749      5.661e-004    0.434    6.809e+001    2.425e+000    
2.445    1.365    30.000      0.894         2.012     1.080    0.751      5.600e-004    0.441    6.982e+001    2.554e+000    
2.445    1.375    30.000      0.900         1.987     1.070    0.754      5.537e-004    0.448    6.464e+001    2.546e+000    
2.445    1.385    30.000      0.907         1.962     1.060    0.757      5.472e-004    0.456    6.849e+001    2.743e+000    
2.445    1.395    30.000      0.914         1.936     1.050    0.759      5.398e-004    0.464    6.372e+001    2.267e+000    
2.445    1.405    30.000      0.920         1.911     1.040    0.762      5.328e-004    0.471    6.259e+001    2.225e+000    
2.445    1.415    30.000      0.927         1.886     1.030    0.765      5.256e-004    0.479    6.454e+001    2.286e+000    
2.445    1.425    30.000      0.933         1.860     1.020    0.767      5.175e-004    0.488    6.128e+001    2.180e+000    
2.445    1.435    30.000      0.940         1.835     1.010    0.770      5.098e-004    0.496    6.114e+001    2.169e+000    
2.445    1.445    30.000      0.946         1.810     1.000    0.772      5.018e-004    0.504    6.403e+001    2.267e+000    
2.445    1.455    30.000      0.953         1.784     0.990    0.774      4.929e-004    0.513    6.560e+001    2.314e+000    
2.445    1.465    30.000      0.959         1.759     0.980    0.777      4.844e-004    0.522    6.579e+001    2.326e+000    
2.445    1.475    30.000      0.966         1.734     0.970    0.779      4.756e-004    0.531    6.538e+001    2.310e+000    
2.445    1.485    30.000      0.973         1.708     0.960    0.781      4.660e-004    0.540    6.688e+001    2.355e+000    
2.445    1.495    30.000      0.979         1.683     0.950    0.784      4.567e-004    0.549    6.771e+001    2.395e+000    
2.445    1.505    30.000      0.986         1.658     0.940    0.786      4.471e-004    0.559    7.110e+001    2.512e+000    
2.445    1.515    30.000      0.992         1.633     0.930    0.788      4.372e-004    0.569    7.332e+001    2.584e+000    
2.445    1.525    30.000      0.999         1.607     0.920    0.790      4.265e-004    0.578    7.417e+001    2.616e+000    
2.445    1.535    30.000      1.005         1.582     0.910    0.792      4.161e-004    0.589    8.174e+001    2.877e+000    
2.445    1.545    30.000      1.012         1.557     0.900    0.795      4.053e-004    0.599    8.025e+001    2.839e+000    
2.445    1.555    30.000      1.018         1.531     0.890    0.797      3.938e-004    0.610    8.612e+001    3.049e+000    
2.445    1.565    30.000      1.025         1.506     0.880    0.799      3.824e-004    0.621    8.350e+001    2.959e+000    
2.445    1.575    30.000      1.031         1.481     0.870    0.801      3.709e-004    0.631    8.902e+001    3.162e+000    
2.445    1.585    30.000      1.038         1.455     0.860    0.803      3.583e-004    0.643    8.733e+001    3.109e+000    
2.445    1.605    30.000      1.051         1.405     0.840    0.806      3.336e-004    0.667    7.234e+001    2.831e+000    
2.445    1.615    30.000      1.058         1.379     0.830    0.808      3.200e-004    0.679    6.118e+001    3.732e+000    
2.445    1.625    30.000      1.064         1.354     0.820    0.810      3.070e-004    0.691    4.989e+001    3.054e+000    
2.445    1.635    30.000      1.071         1.329     0.810    0.812      2.935e-004    0.705    3.961e+001    2.435e+000    
2.445    1.645    30.000      1.077         1.303     0.800    0.814      2.793e-004    0.717    2.983e+001    1.850e+000    
2.445    1.655    30.000      1.084         1.278     0.790    0.815      2.651e-004    0.731    2.205e+001    1.371e+000    
2.445    1.665    30.000      1.090         1.253     0.780    0.817      2.509e-004    0.745    1.556e+001    9.787e-001    
2.445    1.675    30.000      1.097         1.228     0.770    0.819      2.361e-004    0.759    1.010e+001    6.454e-001    
2.445    1.685    30.000      1.103         1.202     0.760    0.820      2.206e-004    0.773    6.565e+000    4.248e-001    
2.445    1.695    30.000      1.110         1.177     0.750    0.822      2.052e-004    0.789    3.508e+000    2.331e-001    
3.245    1.165    26.980      0.823         3.959     2.080    0.581      6.323e-004    0.211    6.573e+001    2.263e+000    
3.245    1.175    26.980      0.830         3.934     2.070    0.585      6.327e-004    0.214    6.369e+001    2.200e+000    
3.245    1.185    26.980      0.837         3.908     2.060    0.589      6.330e-004    0.216    6.395e+001    2.211e+000    
3.245    1.195    26.980      0.844         3.882     2.050    0.592      6.331e-004    0.219    6.410e+001    2.219e+000    
3.245    1.205    26.980      0.851         3.856     2.040    0.596      6.333e-004    0.222    6.304e+001    2.180e+000    
3.245    1.215    26.980      0.858         3.830     2.030    0.600      6.334e-004    0.225    6.331e+001    2.193e+000    
3.245    1.225    26.980      0.865         3.805     2.020    0.603      6.337e-004    0.228    6.246e+001    2.161e+000    
3.245    1.235    26.980      0.872         3.779     2.010    0.607      6.338e-004    0.231    6.383e+001    2.209e+000    
3.245    1.245    26.980      0.879         3.753     2.000    0.610      6.338e-004    0.234    6.227e+001    2.159e+000    
3.245    1.255    26.980      0.886         3.727     1.990    0.614      6.337e-004    0.237    6.458e+001    2.237e+000    
3.245    1.265    26.980      0.893         3.701     1.980    0.617      6.336e-004    0.240    6.532e+001    2.258e+000    
3.245    1.275    26.980      0.900         3.675     1.970    0.621      6.335e-004    0.244    6.452e+001    2.235e+000    
3.245    1.285    26.980      0.907         3.650     1.960    0.624      6.336e-004    0.247    6.324e+001    2.196e+000    
3.245    1.295    26.980      0.914         3.624     1.950    0.627      6.333e-004    0.250    6.296e+001    2.185e+000    
3.245    1.305    26.980      0.921         3.598     1.940    0.631      6.331e-004    0.253    6.273e+001    2.179e+000    
3.245    1.315    26.980      0.928         3.572     1.930    0.634      6.328e-004    0.256    6.244e+001    2.178e+000    
3.245    1.325    26.980      0.936         3.546     1.920    0.638      6.324e-004    0.260    6.150e+001    2.143e+000    
3.245    1.335    26.980      0.943         3.521     1.910    0.641      6.322e-004    0.263    6.572e+001    2.170e+000    
3.245    1.345    26.980      0.950         3.495     1.900    0.644      6.318e-004    0.266    6.255e+001    2.027e+000    
3.245    1.355    26.980      0.957         3.469     1.890    0.647      6.312e-004    0.270    6.198e+001    2.011e+000    
3.245    1.375    26.980      0.971         3.417     1.870    0.654      6.300e-004    0.277    6.203e+001    2.059e+000    
3.245    1.385    26.980      0.978         3.391     1.860    0.657      6.293e-004    0.280    6.146e+001    2.039e+000    
3.245    1.395    26.980      0.985         3.366     1.850    0.660      6.288e-004    0.284    5.975e+001    1.984e+000    
3.245    1.405    26.980      0.992         3.340     1.840    0.663      6.280e-004    0.287    6.086e+001    2.021e+000    
3.245    1.415    26.980      0.999         3.314     1.830    0.666      6.271e-004    0.291    5.981e+001    1.986e+000    
3.245    1.425    26.980      1.006         3.288     1.820    0.669      6.262e-004    0.295    6.045e+001    2.008e+000    
3.245    1.435    26.980      1.013         3.262     1.810    0.672      6.253e-004    0.298    6.202e+001    2.059e+000    
3.245    1.445    26.980      1.020         3.237     1.800    0.675      6.245e-004    0.302    6.199e+001    2.060e+000    
3.245    1.455    26.980      1.027         3.211     1.790    0.678      6.233e-004    0.306    6.140e+001    2.039e+000    
3.245    1.465    26.980      1.034         3.185     1.780    0.681      6.221e-004    0.310    5.992e+001    1.991e+000    
3.245    1.475    26.980      1.041         3.159     1.770    0.684      6.209e-004    0.313    6.171e+001    2.052e+000    
3.245    1.485    26.980      1.049         3.133     1.760    0.687      6.192e-004    0.318    6.168e+001    2.051e+000    
3.245    1.495    26.980      1.056         3.107     1.750    0.690      6.178e-004    0.322    6.139e+001    2.042e+000    
3.245    1.505    26.980      1.063         3.082     1.740    0.693      6.166e-004    0.326    5.909e+001    1.968e+000    
3.245    1.515    26.980      1.070         3.056     1.730    0.696      6.151e-004    0.330    6.244e+001    2.082e+000    
3.245    1.525    26.980      1.077         3.030     1.720    0.699      6.134e-004    0.334    6.141e+001    2.047e+000    
3.245    1.535    26.980      1.084         3.004     1.710    0.701      6.117e-004    0.338    6.344e+001    2.130e+000    
3.245    1.545    26.980      1.091         2.978     1.700    0.704      6.099e-004    0.342    6.163e+001    1.995e+000    
3.245    1.555    26.980      1.098         2.952     1.690    0.707      6.080e-004    0.346    6.238e+001    2.020e+000    
3.245    1.565    26.980      1.105         2.927     1.680    0.710      6.063e-004    0.350    6.250e+001    2.054e+000    
3.245    1.575    26.980      1.112         2.901     1.670    0.712      6.042e-004    0.355    5.941e+001    2.024e+000    
3.245    1.585    26.980      1.119         2.875     1.660    0.715      6.020e-004    0.359    6.027e+001    2.057e+000    
3.245    1.595    26.980      1.126         2.849     1.650    0.718      5.998e-004    0.364    5.827e+001    1.988e+000    
3.245    1.605    26.980      1.133         2.823     1.640    0.720      5.974e-004    0.368    5.765e+001    1.966e+000    
3.245    1.615    26.980      1.140         2.798     1.630    0.723      5.953e-004    0.373    5.846e+001    1.998e+000    
3.245    1.625    26.980      1.147         2.772     1.620    0.725      5.927e-004    0.377    5.617e+001    1.919e+000    
3.245    1.635    26.980      1.154         2.746     1.610    0.728      5.901e-004    0.382    5.626e+001    1.925e+000    
3.245    1.645    26.980      1.161         2.720     1.600    0.731      5.873e-004    0.387    5.419e+001    1.853e+000    
3.245    1.655    26.980      1.169         2.694     1.590    0.733      5.842e-004    0.392    5.506e+001    1.886e+000    
3.245    1.665    26.980      1.176         2.668     1.580    0.736      5.813e-004    0.397    5.394e+001    1.848e+000    
3.245    1.675    26.980      1.183         2.643     1.570    0.738      5.785e-004    0.402    5.247e+001    1.800e+000    
3.245    1.685    26.980      1.190         2.617     1.560    0.740      5.754e-004    0.406    5.168e+001    1.770e+000    
3.245    1.695    26.980      1.197         2.591     1.550    0.743      5.721e-004    0.412    5.133e+001    1.765e+000    
3.245    1.705    26.980      1.204         2.565     1.540    0.745      5.687e-004    0.417    5.124e+001    1.762e+000    
3.245    1.715    26.980      1.211         2.539     1.530    0.748      5.651e-004    0.422    5.039e+001    1.731e+000    
3.245    1.725    26.980      1.218         2.514     1.520    0.750      5.618e-004    0.427    5.042e+001    1.735e+000    
3.245    1.735    26.980      1.225         2.488     1.510    0.752      5.581e-004    0.432    4.936e+001    1.700e+000    
3.245    1.745    26.980      1.232         2.462     1.500    0.755      5.542e-004    0.438    5.091e+001    1.758e+000    
3.245    1.755    26.980      1.239         2.436     1.490    0.757      5.502e-004    0.443    4.909e+001    1.696e+000    
3.245    1.765    26.980      1.246         2.410     1.480    0.759      5.461e-004    0.449    5.054e+001    1.771e+000    
3.245    1.775    26.980      1.253         2.384     1.470    0.761      5.418e-004    0.454    5.044e+001    1.661e+000    
3.245    1.785    26.980      1.260         2.359     1.460    0.763      5.378e-004    0.460    4.946e+001    1.631e+000    
3.245    1.795    26.980      1.267         2.333     1.450    0.766      5.332e-004    0.466    4.882e+001    1.612e+000    
3.245    1.805    26.980      1.274         2.307     1.440    0.768      5.286e-004    0.471    5.033e+001    1.734e+000    
3.245    1.815    26.980      1.282         2.281     1.430    0.770      5.235e-004    0.478    4.890e+001    1.712e+000    
3.245    1.825    26.980      1.289         2.255     1.420    0.772      5.186e-004    0.484    4.678e+001    1.642e+000    
3.245    1.835    26.980      1.296         2.230     1.410    0.774      5.139e-004    0.490    4.626e+001    1.623e+000    
3.245    1.845    26.980      1.303         2.204     1.400    0.776      5.087e-004    0.496    4.408e+001    1.548e+000    
3.245    1.855    26.980      1.310         2.178     1.390    0.778      5.033e-004    0.502    4.380e+001    1.543e+000    
3.245    1.865    26.980      1.317         2.152     1.380    0.780      4.977e-004    0.509    4.147e+001    1.459e+000    
3.245    1.875    26.980      1.324         2.126     1.370    0.782      4.921e-004    0.515    3.958e+001    1.395e+000    
3.245    1.885    26.980      1.331         2.100     1.360    0.784      4.862e-004    0.522    3.929e+001    1.388e+000    
3.245    1.895    26.980      1.338         2.075     1.350    0.786      4.806e-004    0.528    3.764e+001    1.330e+000    
3.245    1.905    26.980      1.345         2.049     1.340    0.788      4.745e-004    0.535    3.613e+001    1.281e+000    
3.245    1.915    26.980      1.352         2.023     1.330    0.790      4.682e-004    0.542    3.570e+001    1.267e+000    
3.245    1.925    26.980      1.359         1.997     1.320    0.792      4.617e-004    0.549    3.439e+001    1.224e+000    
3.245    1.935    26.980      1.366         1.971     1.310    0.794      4.550e-004    0.556    3.296e+001    1.170e+000    
3.245    1.945    26.980      1.373         1.945     1.300    0.796      4.482e-004    0.563    3.298e+001    1.175e+000    
3.245    1.955    26.980      1.380         1.920     1.290    0.798      4.417e-004    0.570    3.245e+001    1.160e+000    
3.245    1.965    26.980      1.387         1.894     1.280    0.799      4.345e-004    0.577    3.239e+001    1.157e+000    
3.245    1.975    26.980      1.395         1.868     1.270    0.801      4.270e-004    0.585    3.053e+001    1.092e+000    
3.245    1.985    26.980      1.402         1.842     1.260    0.803      4.195e-004    0.593    3.180e+001    1.137e+000    
3.245    1.995    26.980      1.409         1.816     1.250    0.805      4.118e-004    0.601    2.964e+001    1.062e+000    
3.245    2.005    26.980      1.416         1.791     1.240    0.806      4.044e-004    0.609    3.081e+001    1.111e+000    
3.245    2.015    26.980      1.423         1.765     1.230    0.808      3.964e-004    0.616    2.972e+001    1.069e+000    
3.245    2.025    26.980      1.430         1.739     1.220    0.810      3.881e-004    0.625    3.022e+001    1.029e+000    
3.245    2.035    26.980      1.437         1.713     1.210    0.811      3.797e-004    0.633    3.003e+001    9.955e-001    
3.245    2.045    26.980      1.444         1.687     1.200    0.813      3.711e-004    0.641    2.953e+001    9.798e-001    
3.245    2.055    26.980      1.451         1.661     1.190    0.815      3.623e-004    0.650    3.081e+001    1.023e+000    
3.245    2.065    26.980      1.458         1.636     1.180    0.816      3.538e-004    0.658    3.007e+001    9.996e-001    
3.245    2.075    26.980      1.465         1.610     1.170    0.818      3.446e-004    0.667    3.269e+001    1.127e+000    
3.245    2.085    26.980      1.472         1.584     1.160    0.819      3.352e-004    0.676    3.197e+001    1.109e+000    
3.245    2.095    26.980      1.479         1.558     1.150    0.821      3.256e-004    0.685    3.314e+001    1.151e+000    
3.245    2.105    26.980      1.486         1.532     1.140    0.823      3.158e-004    0.695    3.375e+001    1.171e+000    
3.245    2.115    26.980      1.493         1.507     1.130    0.824      3.063e-004    0.704    3.417e+001    1.188e+000    
3.245    2.125    26.980      1.500         1.481     1.120    0.826      2.961e-004    0.714    3.503e+001    1.223e+000    
3.245    2.135    26.980      1.507         1.455     1.110    0.827      2.857e-004    0.723    3.292e+001    1.153e+000    
3.245    2.145    26.980      1.515         1.429     1.100    0.828      2.750e-004    0.734    3.197e+001    1.120e+000    
3.245    2.155    26.980      1.522         1.403     1.090    0.830      2.642e-004    0.744    2.849e+001    1.003e+000    
3.245    2.165    26.980      1.529         1.377     1.080    0.831      2.531e-004    0.754    2.350e+001    1.375e+000    
3.245    2.175    26.980      1.536         1.352     1.070    0.833      2.424e-004    0.765    1.983e+001    1.163e+000    
3.245    2.185    26.980      1.543         1.326     1.060    0.834      2.309e-004    0.776    1.545e+001    9.088e-001    
3.245    2.195    26.980      1.550         1.300     1.050    0.835      2.193e-004    0.787    1.169e+001    6.896e-001    
3.245    2.205    26.980      1.557         1.274     1.040    0.837      2.074e-004    0.798    8.487e+000    5.025e-001    
3.245    2.215    26.980      1.564         1.248     1.030    0.838      1.953e-004    0.809    5.399e+000    3.213e-001    
3.245    2.225    26.980      1.571         1.222     1.020    0.839      1.829e-004    0.821    3.562e+000    2.136e-001    
3.245    2.235    26.980      1.578         1.197     1.010    0.841      1.709e-004    0.833    2.127e+000    1.286e-001    
3.245    2.245    26.980      1.585         1.171     1.000    0.842      1.581e-004    0.845    1.109e+000    6.791e-002    
4.054    1.745    24.030      1.226         3.986     2.309    0.674      6.583e-004    0.283    4.863e+001    1.741e+000    
4.054    1.755    24.030      1.233         3.960     2.299    0.676      6.579e-004    0.286    4.714e+001    1.693e+000    
4.054    1.765    24.030      1.240         3.934     2.289    0.679      6.575e-004    0.289    4.792e+001    1.723e+000    
4.054    1.775    24.030      1.247         3.909     2.279    0.681      6.574e-004    0.292    4.726e+001    1.697e+000    
4.054    1.785    24.030      1.254         3.883     2.269    0.684      6.569e-004    0.295    4.835e+001    1.739e+000    
4.054    1.795    24.030      1.261         3.857     2.259    0.686      6.564e-004    0.297    4.718e+001    1.692e+000    
4.054    1.805    24.030      1.268         3.831     2.249    0.689      6.559e-004    0.300    4.604e+001    1.659e+000    
4.054    1.815    24.030      1.275         3.805     2.239    0.691      6.553e-004    0.303    4.755e+001    1.714e+000    
4.054    1.825    24.030      1.282         3.780     2.229    0.694      6.549e-004    0.306    4.662e+001    1.681e+000    
4.054    1.835    24.030      1.289         3.754     2.219    0.696      6.542e-004    0.310    4.812e+001    1.730e+000    
4.054    1.845    24.030      1.296         3.728     2.209    0.698      6.535e-004    0.313    4.673e+001    1.683e+000    
4.054    1.855    24.030      1.303         3.702     2.199    0.701      6.527e-004    0.316    4.602e+001    1.660e+000    
4.054    1.865    24.030      1.310         3.677     2.189    0.703      6.521e-004    0.319    4.714e+001    1.700e+000    
4.054    1.875    24.030      1.317         3.651     2.179    0.706      6.513e-004    0.322    4.572e+001    1.652e+000    
4.054    1.885    24.030      1.324         3.625     2.169    0.708      6.504e-004    0.325    4.490e+001    1.619e+000    
4.054    1.895    24.030      1.331         3.599     2.159    0.710      6.494e-004    0.329    4.541e+001    1.640e+000    
4.054    1.905    24.030      1.338         3.573     2.149    0.713      6.484e-004    0.332    4.635e+001    1.675e+000    
4.054    1.915    24.030      1.345         3.548     2.139    0.715      6.476e-004    0.335    4.751e+001    1.717e+000    
4.054    1.925    24.030      1.352         3.522     2.129    0.717      6.464e-004    0.338    4.534e+001    1.638e+000    
4.054    1.935    24.030      1.359         3.496     2.119    0.719      6.453e-004    0.342    4.526e+001    1.639e+000    
4.054    1.945    24.030      1.366         3.470     2.109    0.722      6.440e-004    0.345    4.503e+001    1.631e+000    
4.054    1.955    24.030      1.373         3.444     2.099    0.724      6.428e-004    0.349    4.560e+001    1.652e+000    
4.054    1.975    24.030      1.387         3.393     2.079    0.728      6.402e-004    0.356    4.508e+001    1.523e+000    
4.054    1.985    24.030      1.394         3.367     2.069    0.731      6.388e-004    0.359    4.326e+001    1.464e+000    
4.054    1.995    24.030      1.401         3.341     2.059    0.733      6.373e-004    0.363    4.307e+001    1.458e+000    
4.054    2.005    24.030      1.408         3.316     2.049    0.735      6.359e-004    0.366    4.274e+001    1.447e+000    
4.054    2.015    24.030      1.415         3.290     2.039    0.737      6.343e-004    0.370    4.168e+001    1.414e+000    
4.054    2.025    24.030      1.422         3.264     2.029    0.739      6.325e-004    0.373    4.227e+001    1.433e+000    
4.054    2.045    24.030      1.436         3.212     2.009    0.743      6.289e-004    0.381    4.095e+001    1.496e+000    
4.054    2.055    24.030      1.444         3.187     1.999    0.746      6.271e-004    0.385    4.110e+001    1.504e+000    
4.054    2.065    24.030      1.451         3.161     1.989    0.748      6.251e-004    0.389    4.260e+001    1.560e+000    
4.054    2.075    24.030      1.458         3.135     1.979    0.750      6.230e-004    0.393    4.066e+001    1.491e+000    
4.054    2.085    24.030      1.465         3.109     1.969    0.752      6.209e-004    0.396    4.151e+001    1.519e+000    
4.054    2.095    24.030      1.472         3.083     1.959    0.754      6.187e-004    0.400    4.179e+001    1.533e+000    
4.054    2.105    24.030      1.479         3.058     1.949    0.756      6.166e-004    0.404    4.013e+001    1.472e+000    
4.054    2.115    24.030      1.486         3.032     1.939    0.758      6.143e-004    0.408    4.279e+001    1.568e+000    
4.054    2.125    24.030      1.493         3.006     1.929    0.760      6.118e-004    0.412    4.055e+001    1.490e+000    
4.054    2.135    24.030      1.500         2.980     1.919    0.762      6.093e-004    0.417    4.162e+001    1.528e+000    
4.054    2.145    24.030      1.507         2.955     1.909    0.764      6.070e-004    0.421    4.100e+001    1.503e+000    
4.054    2.155    24.030      1.514         2.929     1.899    0.765      6.043e-004    0.425    4.143e+001    1.522e+000    
4.054    2.165    24.030      1.521         2.903     1.889    0.767      6.016e-004    0.429    4.044e+001    1.489e+000    
4.054    2.175    24.030      1.528         2.877     1.879    0.769      5.987e-004    0.433    4.048e+001    1.493e+000    
4.054    2.185    24.030      1.535         2.851     1.869    0.771      5.958e-004    0.438    4.065e+001    1.497e+000    
4.054    2.195    24.030      1.542         2.826     1.859    0.773      5.931e-004    0.442    3.951e+001    1.456e+000    
4.054    2.205    24.030      1.549         2.800     1.849    0.775      5.900e-004    0.446    4.031e+001    1.491e+000    
4.054    2.215    24.030      1.556         2.774     1.839    0.777      5.868e-004    0.451    3.837e+001    1.418e+000    
4.054    2.225    24.030      1.563         2.748     1.829    0.779      5.835e-004    0.455    3.931e+001    1.455e+000    
4.054    2.235    24.030      1.570         2.722     1.819    0.780      5.801e-004    0.460    3.573e+001    1.326e+000    
4.054    2.245    24.030      1.577         2.697     1.809    0.782      5.769e-004    0.465    3.745e+001    1.351e+000    
4.054    2.255    24.030      1.584         2.671     1.799    0.784      5.733e-004    0.469    3.559e+001    1.214e+000    
4.054    2.265    24.030      1.591         2.645     1.789    0.786      5.697e-004    0.474    3.574e+001    1.221e+000    
4.054    2.275    24.030      1.598         2.619     1.779    0.787      5.659e-004    0.479    3.410e+001    1.167e+000    
4.054    2.285    24.030      1.605         2.594     1.769    0.789      5.623e-004    0.483    3.336e+001    1.142e+000    
4.054    2.295    24.030      1.612         2.568     1.759    0.791      5.583e-004    0.488    3.318e+001    1.139e+000    
4.054    2.305    24.030      1.619         2.542     1.749    0.793      5.543e-004    0.493    3.254e+001    1.116e+000    
4.054    2.325    24.030      1.633         2.490     1.729    0.796      5.458e-004    0.503    3.200e+001    1.176e+000    
4.054    2.335    24.030      1.640         2.465     1.719    0.798      5.417e-004    0.508    3.105e+001    1.143e+000    
4.054    2.345    24.030      1.647         2.439     1.709    0.799      5.372e-004    0.514    3.150e+001    1.161e+000    
4.054    2.355    24.030      1.654         2.413     1.699    0.801      5.325e-004    0.519    3.240e+001    1.196e+000    
4.054    2.365    24.030      1.661         2.387     1.689    0.802      5.278e-004    0.524    3.075e+001    1.138e+000    
4.054    2.375    24.030      1.668         2.362     1.679    0.804      5.233e-004    0.529    3.124e+001    1.158e+000    
4.054    2.385    24.030      1.675         2.336     1.669    0.806      5.183e-004    0.535    3.062e+001    1.131e+000    
4.054    2.395    24.030      1.682         2.310     1.659    0.807      5.132e-004    0.540    3.027e+001    1.123e+000    
4.054    2.405    24.030      1.689         2.284     1.649    0.809      5.080e-004    0.546    2.982e+001    1.108e+000    
4.054    2.415    24.030      1.696         2.258     1.639    0.810      5.027e-004    0.551    2.946e+001    1.097e+000    
4.054    2.425    24.030      1.703         2.233     1.629    0.812      4.976e-004    0.557    3.102e+001    1.154e+000    
4.054    2.435    24.030      1.710         2.207     1.619    0.813      4.920e-004    0.563    2.863e+001    1.069e+000    
4.054    2.445    24.030      1.717         2.181     1.609    0.815      4.863e-004    0.569    2.755e+001    1.029e+000    
4.054    2.455    24.030      1.724         2.155     1.599    0.816      4.804e-004    0.575    2.693e+001    1.006e+000    
4.054    2.465    24.030      1.732         2.129     1.589    0.818      4.743e-004    0.581    2.625e+001    9.852e-001    
4.054    2.475    24.030      1.739         2.104     1.579    0.819      4.686e-004    0.587    2.547e+001    9.563e-001    
4.054    2.485    24.030      1.746         2.078     1.569    0.821      4.623e-004    0.593    2.412e+001    9.118e-001    
4.054    2.495    24.030      1.753         2.052     1.559    0.822      4.559e-004    0.599    2.300e+001    8.694e-001    
4.054    2.505    24.030      1.760         2.026     1.549    0.824      4.494e-004    0.605    2.284e+001    8.645e-001    
4.054    2.515    24.030      1.767         2.001     1.539    0.825      4.432e-004    0.612    2.257e+001    8.561e-001    
4.054    2.525    24.030      1.774         1.975     1.529    0.826      4.364e-004    0.618    2.187e+001    8.292e-001    
4.054    2.535    24.030      1.781         1.949     1.519    0.828      4.294e-004    0.625    2.111e+001    8.059e-001    
4.054    2.545    24.030      1.788         1.923     1.509    0.829      4.223e-004    0.631    2.072e+001    7.901e-001    
4.054    2.565    24.030      1.802         1.872     1.489    0.832      4.081e-004    0.645    2.036e+001    7.048e-001    
4.054    2.575    24.030      1.809         1.846     1.479    0.833      4.006e-004    0.652    1.951e+001    6.759e-001    
4.054    2.585    24.030      1.816         1.820     1.469    0.835      3.929e-004    0.659    1.870e+001    6.505e-001    
4.054    2.595    24.030      1.823         1.794     1.459    0.836      3.851e-004    0.666    1.842e+001    6.419e-001    
4.054    2.605    24.030      1.830         1.768     1.449    0.837      3.771e-004    0.673    1.743e+001    6.072e-001    
4.054    2.615    24.030      1.837         1.743     1.439    0.838      3.694e-004    0.680    1.823e+001    6.361e-001    
4.054    2.625    24.030      1.844         1.717     1.429    0.840      3.611e-004    0.688    1.760e+001    6.135e-001    
4.054    2.635    24.030      1.851         1.691     1.419    0.841      3.526e-004    0.695    1.729e+001    6.224e-001    
4.054    2.645    24.030      1.858         1.665     1.409    0.842      3.440e-004    0.703    1.754e+001    6.632e-001    
4.054    2.655    24.030      1.865         1.640     1.399    0.843      3.357e-004    0.710    1.754e+001    6.623e-001    
4.054    2.665    24.030      1.872         1.614     1.389    0.845      3.267e-004    0.718    1.775e+001    6.719e-001    
4.054    2.675    24.030      1.879         1.588     1.379    0.846      3.176e-004    0.726    1.915e+001    7.249e-001    
4.054    2.685    24.030      1.886         1.562     1.369    0.847      3.083e-004    0.734    1.963e+001    7.463e-001    
4.054    2.695    24.030      1.893         1.536     1.359    0.848      2.988e-004    0.742    2.056e+001    7.824e-001    
4.054    2.705    24.030      1.900         1.511     1.349    0.849      2.897e-004    0.751    2.176e+001    8.296e-001    
4.054    2.715    24.030      1.907         1.485     1.339    0.851      2.799e-004    0.759    2.162e+001    8.234e-001    
4.054    2.725    24.030      1.914         1.459     1.329    0.852      2.699e-004    0.767    2.097e+001    8.036e-001    
4.054    2.735    24.030      1.921         1.433     1.319    0.853      2.597e-004    0.776    1.835e+001    7.083e-001    
4.054    2.745    24.030      1.928         1.407     1.309    0.854      2.494e-004    0.785    1.696e+001    6.562e-001    
4.054    2.755    24.030      1.935         1.382     1.299    0.855      2.394e-004    0.794    1.337e+001    8.130e-001    
4.054    2.765    24.030      1.942         1.356     1.289    0.856      2.287e-004    0.803    1.059e+001    6.475e-001    
4.054    2.775    24.030      1.949         1.330     1.279    0.857      2.178e-004    0.812    8.239e+000    5.048e-001    
4.054    2.785    24.030      1.956         1.304     1.269    0.858      2.068e-004    0.821    5.972e+000    3.678e-001    
4.054    2.795    24.030      1.963         1.279     1.259    0.859      1.961e-004    0.831    4.431e+000    2.743e-001    
4.054    2.805    24.030      1.970         1.253     1.249    0.860      1.846e-004    0.840    2.940e+000    1.834e-001    
4.054    2.815    24.030      1.977         1.227     1.239    0.861      1.730e-004    0.850    2.101e+000    1.316e-001    
4.054    2.825    24.030      1.984         1.201     1.229    0.862      1.612e-004    0.860    1.366e+000    8.676e-002    
4.054    2.835    24.030      1.991         1.175     1.219    0.863      1.493e-004    0.870    7.858e-001    5.043e-002    
2.445    0.505    70.010      1.625         2.895     1.940    0.235      6.597e-005    0.446    3.661e+000    1.339e-001    
2.445    0.515    70.010      1.657         2.844     1.930    0.239      6.462e-005    0.458    3.298e+000    1.104e-001    
2.445    0.525    70.010      1.689         2.793     1.920    0.243      6.326e-005    0.469    3.165e+000    1.061e-001    
2.445    0.535    70.010      1.721         2.742     1.910    0.246      6.188e-005    0.480    3.076e+000    1.033e-001    
2.445    0.545    70.010      1.753         2.691     1.900    0.250      6.048e-005    0.492    2.880e+000    9.690e-002    
2.445    0.555    70.010      1.786         2.640     1.890    0.254      5.904e-005    0.504    2.784e+000    9.376e-002    
2.445    0.565    70.010      1.818         2.589     1.880    0.257      5.761e-005    0.515    2.556e+000    8.646e-002    
2.445    0.575    70.010      1.850         2.538     1.870    0.261      5.617e-005    0.527    2.478e+000    8.408e-002    
2.445    0.585    70.010      1.882         2.487     1.860    0.264      5.470e-005    0.539    2.334e+000    7.964e-002    
2.445    0.595    70.010      1.914         2.436     1.850    0.268      5.322e-005    0.551    2.315e+000    8.935e-002    
2.445    0.675    70.010      2.172         2.029     1.770    0.294      4.078e-005    0.654    1.450e+000    5.061e-002    
2.445    0.685    70.010      2.204         1.978     1.760    0.298      3.914e-005    0.667    1.264e+000    4.375e-002    
2.445    0.695    70.010      2.236         1.927     1.750    0.301      3.750e-005    0.681    1.164e+000    4.057e-002    
2.445    0.705    70.010      2.268         1.876     1.740    0.304      3.583e-005    0.695    1.094e+000    3.836e-002    
2.445    0.715    70.010      2.300         1.825     1.730    0.307      3.415e-005    0.708    1.056e+000    3.711e-002    
2.445    0.725    70.010      2.333         1.774     1.720    0.310      3.244e-005    0.723    1.011e+000    3.573e-002    
2.445    0.735    70.010      2.365         1.723     1.710    0.313      3.072e-005    0.737    9.359e-001    3.327e-002    
2.445    0.745    70.010      2.397         1.672     1.700    0.316      2.899e-005    0.751    8.907e-001    3.191e-002    
2.445    0.755    70.010      2.429         1.621     1.690    0.319      2.724e-005    0.766    8.444e-001    3.050e-002    
2.445    0.765    70.010      2.461         1.570     1.680    0.322      2.548e-005    0.781    8.260e-001    3.008e-002    
2.445    0.775    70.010      2.493         1.520     1.670    0.325      2.373e-005    0.795    7.865e-001    2.676e-002    
2.445    0.785    70.010      2.526         1.469     1.660    0.328      2.193e-005    0.811    7.169e-001    2.417e-002    
2.445    0.795    70.010      2.558         1.418     1.650    0.331      2.012e-005    0.826    6.223e-001    2.200e-002    
2.445    0.805    70.010      2.590         1.367     1.640    0.333      1.828e-005    0.842    5.157e-001    3.032e-002    
2.445    0.815    70.010      2.622         1.316     1.630    0.336      1.644e-005    0.857    4.122e-001    2.437e-002    
2.445    0.825    70.010      2.654         1.265     1.620    0.339      1.457e-005    0.873    2.534e-001    1.510e-002    
2.445    0.835    70.010      2.686         1.214     1.610    0.342      1.269e-005    0.889    1.040e-001    6.354e-003    
2.445    0.845    70.010      2.719         1.163     1.600    0.344      1.079e-005    0.906    3.619e-002    2.339e-003    
4.045    1.515    30.000      1.641         3.985     2.530    0.587      3.380e-004    0.346    1.902e+001    6.808e-001    
4.045    1.525    30.000      1.652         3.955     2.520    0.590      3.370e-004    0.349    1.829e+001    6.566e-001    
4.045    1.535    30.000      1.663         3.926     2.510    0.593      3.361e-004    0.353    1.805e+001    6.490e-001    
4.045    1.545    30.000      1.674         3.896     2.500    0.595      3.351e-004    0.357    1.804e+001    6.490e-001    
4.045    1.555    30.000      1.685         3.866     2.490    0.598      3.340e-004    0.361    1.833e+001    6.581e-001    
4.045    1.565    30.000      1.696         3.837     2.480    0.601      3.330e-004    0.364    1.854e+001    6.659e-001    
4.045    1.575    30.000      1.706         3.807     2.470    0.603      3.319e-004    0.368    1.828e+001    6.586e-001    
4.045    1.585    30.000      1.717         3.778     2.460    0.606      3.309e-004    0.372    1.726e+001    6.227e-001    
4.045    1.595    30.000      1.728         3.748     2.450    0.609      3.297e-004    0.376    1.732e+001    5.844e-001    
4.045    1.605    30.000      1.739         3.718     2.440    0.612      3.284e-004    0.380    1.672e+001    5.586e-001    
4.045    1.615    30.000      1.750         3.689     2.430    0.614      3.273e-004    0.384    1.650e+001    5.521e-001    
4.045    1.625    30.000      1.761         3.659     2.420    0.617      3.260e-004    0.388    1.649e+001    5.527e-001    
4.045    1.635    30.000      1.771         3.630     2.410    0.619      3.249e-004    0.392    1.562e+001    5.239e-001    
4.045    1.645    30.000      1.782         3.600     2.400    0.622      3.235e-004    0.396    1.616e+001    5.429e-001    
4.045    1.665    30.000      1.804         3.541     2.380    0.627      3.209e-004    0.404    1.497e+001    5.267e-001    
4.045    1.675    30.000      1.815         3.511     2.370    0.630      3.194e-004    0.408    1.521e+001    5.360e-001    
4.045    1.685    30.000      1.826         3.482     2.360    0.632      3.180e-004    0.412    1.468e+001    5.178e-001    
4.045    1.695    30.000      1.836         3.452     2.350    0.635      3.166e-004    0.416    1.434e+001    5.057e-001    
4.045    1.705    30.000      1.847         3.423     2.340    0.637      3.152e-004    0.421    1.453e+001    5.137e-001    
4.045    1.715    30.000      1.858         3.393     2.330    0.640      3.136e-004    0.425    1.413e+001    4.991e-001    
4.045    1.725    30.000      1.869         3.363     2.320    0.642      3.120e-004    0.429    1.432e+001    5.054e-001    
4.045    1.735    30.000      1.880         3.334     2.310    0.645      3.104e-004    0.434    1.440e+001    5.089e-001    
4.045    1.745    30.000      1.891         3.304     2.300    0.647      3.087e-004    0.438    1.420e+001    5.013e-001    
4.045    1.755    30.000      1.901         3.275     2.290    0.649      3.072e-004    0.442    1.352e+001    4.789e-001    
4.045    1.765    30.000      1.912         3.245     2.280    0.652      3.055e-004    0.447    1.362e+001    4.826e-001    
4.045    1.775    30.000      1.923         3.215     2.270    0.654      3.037e-004    0.451    1.345e+001    4.776e-001    
4.045    1.785    30.000      1.934         3.186     2.260    0.657      3.019e-004    0.456    1.374e+001    4.877e-001    
4.045    1.795    30.000      1.945         3.156     2.250    0.659      3.001e-004    0.461    1.325e+001    4.709e-001    
4.045    1.805    30.000      1.956         3.127     2.240    0.661      2.983e-004    0.465    1.274e+001    4.536e-001    
4.045    1.815    30.000      1.966         3.097     2.230    0.664      2.964e-004    0.470    1.296e+001    4.626e-001    
4.045    1.825    30.000      1.977         3.067     2.220    0.666      2.944e-004    0.475    1.293e+001    4.619e-001    
4.045    1.835    30.000      1.988         3.038     2.210    0.668      2.925e-004    0.479    1.318e+001    4.714e-001    
4.045    1.845    30.000      1.999         3.008     2.200    0.671      2.904e-004    0.484    1.258e+001    4.500e-001    
4.045    1.855    30.000      2.010         2.979     2.190    0.673      2.884e-004    0.489    1.269e+001    4.561e-001    
4.045    1.865    30.000      2.021         2.949     2.180    0.675      2.862e-004    0.494    1.245e+001    4.588e-001    
4.045    1.895    30.000      2.053         2.860     2.150    0.682      2.797e-004    0.509    1.288e+001    5.063e-001    
4.045    1.905    30.000      2.064         2.831     2.140    0.684      2.775e-004    0.514    1.219e+001    4.290e-001    
4.045    1.915    30.000      2.075         2.801     2.130    0.686      2.751e-004    0.519    1.160e+001    4.098e-001    
4.045    1.925    30.000      2.086         2.771     2.120    0.688      2.726e-004    0.524    1.146e+001    4.056e-001    
4.045    1.935    30.000      2.096         2.742     2.110    0.690      2.703e-004    0.529    1.113e+001    3.956e-001    
4.045    1.945    30.000      2.107         2.712     2.100    0.692      2.678e-004    0.535    1.061e+001    3.769e-001    
4.045    1.955    30.000      2.118         2.683     2.090    0.695      2.654e-004    0.540    1.046e+001    3.731e-001    
4.045    1.965    30.000      2.129         2.653     2.080    0.697      2.628e-004    0.545    1.002e+001    3.571e-001    
4.045    1.975    30.000      2.140         2.623     2.070    0.699      2.601e-004    0.551    9.604e+000    3.418e-001    
4.045    1.985    30.000      2.151         2.594     2.060    0.701      2.575e-004    0.556    9.536e+000    3.403e-001    
4.045    1.995    30.000      2.161         2.564     2.050    0.703      2.548e-004    0.562    9.535e+000    3.416e-001    
4.045    2.005    30.000      2.172         2.535     2.040    0.705      2.521e-004    0.567    9.430e+000    3.376e-001    
4.045    2.015    30.000      2.183         2.505     2.030    0.707      2.492e-004    0.573    9.227e+000    3.301e-001    
4.045    2.025    30.000      2.194         2.476     2.020    0.709      2.464e-004    0.579    8.764e+000    3.146e-001    
4.045    2.035    30.000      2.205         2.446     2.010    0.711      2.435e-004    0.585    9.074e+000    3.259e-001    
4.045    2.045    30.000      2.216         2.416     2.000    0.713      2.404e-004    0.590    8.695e+000    3.119e-001    
4.045    2.055    30.000      2.226         2.387     1.990    0.715      2.375e-004    0.596    8.760e+000    3.147e-001    
4.045    2.065    30.000      2.237         2.357     1.980    0.717      2.344e-004    0.602    8.768e+000    3.156e-001    
4.045    2.075    30.000      2.248         2.328     1.970    0.719      2.314e-004    0.608    8.459e+000    3.049e-001    
4.045    2.085    30.000      2.259         2.298     1.960    0.721      2.281e-004    0.614    8.252e+000    2.985e-001    
4.045    2.095    30.000      2.270         2.268     1.950    0.722      2.248e-004    0.620    8.131e+000    2.943e-001    
4.045    2.105    30.000      2.281         2.239     1.940    0.724      2.216e-004    0.627    8.020e+000    2.909e-001    
4.045    2.115    30.000      2.292         2.209     1.930    0.726      2.182e-004    0.633    7.937e+000    2.880e-001    
4.045    2.125    30.000      2.302         2.180     1.920    0.728      2.149e-004    0.639    7.637e+000    2.784e-001    
4.045    2.135    30.000      2.313         2.150     1.910    0.730      2.114e-004    0.645    7.044e+000    2.571e-001    
4.045    2.145    30.000      2.324         2.120     1.900    0.732      2.077e-004    0.652    6.653e+000    2.437e-001    
4.045    2.155    30.000      2.335         2.091     1.890    0.734      2.043e-004    0.658    6.475e+000    2.377e-001    
4.045    2.165    30.000      2.346         2.061     1.880    0.735      2.005e-004    0.665    6.411e+000    2.367e-001    
4.045    2.175    30.000      2.357         2.032     1.870    0.737      1.969e-004    0.672    6.271e+000    2.146e-001    
4.045    2.185    30.000      2.367         2.002     1.860    0.739      1.931e-004    0.678    5.899e+000    2.004e-001    
4.045    2.195    30.000      2.378         1.972     1.850    0.741      1.892e-004    0.685    5.665e+000    1.931e-001    
4.045    2.205    30.000      2.389         1.943     1.840    0.742      1.854e-004    0.692    5.386e+000    1.839e-001    
4.045    2.215    30.000      2.400         1.913     1.830    0.744      1.814e-004    0.699    5.382e+000    1.843e-001    
4.045    2.225    30.000      2.411         1.884     1.820    0.746      1.775e-004    0.706    5.151e+000    1.811e-001    
4.045    2.235    30.000      2.422         1.854     1.810    0.747      1.733e-004    0.713    4.814e+000    1.766e-001    
4.045    2.245    30.000      2.432         1.824     1.800    0.749      1.691e-004    0.720    4.799e+000    1.768e-001    
4.045    2.255    30.000      2.443         1.795     1.790    0.751      1.650e-004    0.727    4.568e+000    1.674e-001    
4.045    2.265    30.000      2.454         1.765     1.780    0.752      1.607e-004    0.735    4.431e+000    1.628e-001    
4.045    2.275    30.000      2.465         1.736     1.770    0.754      1.564e-004    0.742    4.316e+000    1.590e-001    
4.045    2.285    30.000      2.476         1.706     1.760    0.756      1.519e-004    0.750    4.482e+000    1.657e-001    
4.045    2.295    30.000      2.487         1.676     1.750    0.757      1.474e-004    0.757    4.258e+000    1.581e-001    
4.045    2.305    30.000      2.497         1.647     1.740    0.759      1.430e-004    0.765    4.240e+000    1.574e-001    
4.045    2.315    30.000      2.508         1.617     1.730    0.760      1.383e-004    0.773    4.262e+000    1.584e-001    
4.045    2.325    30.000      2.519         1.588     1.720    0.762      1.337e-004    0.780    4.307e+000    1.613e-001    
4.045    2.335    30.000      2.530         1.558     1.710    0.764      1.289e-004    0.788    4.612e+000    1.724e-001    
4.045    2.345    30.000      2.541         1.528     1.700    0.765      1.240e-004    0.796    4.598e+000    1.723e-001    
4.045    2.355    30.000      2.552         1.499     1.690    0.767      1.192e-004    0.805    4.794e+000    1.750e-001    
4.045    2.365    30.000      2.562         1.469     1.680    0.768      1.142e-004    0.813    4.550e+000    1.594e-001    
4.045    2.375    30.000      2.573         1.440     1.670    0.770      1.093e-004    0.821    4.097e+000    1.440e-001    
4.045    2.385    30.000      2.584         1.410     1.660    0.771      1.041e-004    0.829    3.620e+000    1.280e-001    
4.045    2.395    30.000      2.595         1.381     1.650    0.773      9.900e-005    0.838    2.730e+000    1.602e-001    
4.045    2.405    30.000      2.606         1.351     1.640    0.774      9.366e-005    0.847    2.223e+000    1.308e-001    
4.045    2.415    30.000      2.617         1.321     1.630    0.776      8.825e-005    0.856    1.631e+000    9.630e-002    
4.045    2.425    30.000      2.627         1.292     1.620    0.777      8.299e-005    0.864    1.116e+000    6.611e-002    
4.045    2.435    30.000      2.638         1.262     1.610    0.778      7.743e-005    0.873    7.382e-001    4.402e-002    
4.045    2.445    30.000      2.649         1.233     1.600    0.780      7.200e-005    0.882    4.720e-001    2.827e-002    
4.045    2.455    30.000      2.660         1.203     1.590    0.781      6.629e-005    0.891    3.093e-001    1.863e-002    
4.045    2.465    30.000      2.671         1.173     1.580    0.783      6.051e-005    0.901    1.637e-001    9.977e-003    
4.045    1.195    39.990      2.260         3.967     2.850    0.451      1.449e-004    0.423    5.217e+000    1.865e-001    
4.045    1.205    39.990      2.279         3.929     2.840    0.454      1.439e-004    0.428    5.077e+000    1.701e-001    
4.045    1.215    39.990      2.298         3.891     2.830    0.457      1.428e-004    0.433    4.969e+000    1.669e-001    
4.045    1.225    39.990      2.317         3.854     2.820    0.460      1.418e-004    0.438    4.924e+000    1.656e-001    
4.045    1.235    39.990      2.336         3.816     2.810    0.463      1.408e-004    0.443    4.784e+000    1.611e-001    
4.045    1.245    39.990      2.354         3.778     2.800    0.466      1.398e-004    0.448    4.661e+000    1.572e-001    
4.045    1.265    39.990      2.392         3.703     2.780    0.472      1.376e-004    0.459    4.632e+000    1.665e-001    
4.045    1.275    39.990      2.411         3.665     2.770    0.474      1.365e-004    0.464    4.399e+000    1.585e-001    
4.045    1.285    39.990      2.430         3.628     2.760    0.477      1.354e-004    0.469    4.170e+000    1.510e-001    
4.045    1.295    39.990      2.449         3.590     2.750    0.480      1.343e-004    0.475    4.147e+000    1.501e-001    
4.045    1.305    39.990      2.468         3.552     2.740    0.483      1.331e-004    0.480    4.204e+000    1.521e-001    
4.045    1.315    39.990      2.487         3.515     2.730    0.486      1.320e-004    0.485    4.140e+000    1.501e-001    
4.045    1.325    39.990      2.506         3.477     2.720    0.489      1.308e-004    0.491    4.006e+000    1.458e-001    
4.045    1.335    39.990      2.525         3.439     2.710    0.491      1.296e-004    0.497    4.048e+000    1.473e-001    
4.045    1.345    39.990      2.544         3.402     2.700    0.494      1.284e-004    0.502    3.883e+000    1.315e-001    
4.045    1.355    39.990      2.562         3.364     2.690    0.497      1.272e-004    0.508    3.699e+000    1.232e-001    
4.045    1.365    39.990      2.581         3.326     2.680    0.500      1.259e-004    0.513    3.649e+000    1.217e-001    
4.045    1.375    39.990      2.600         3.289     2.670    0.502      1.247e-004    0.519    3.599e+000    1.202e-001    
4.045    1.385    39.990      2.619         3.251     2.660    0.505      1.234e-004    0.525    3.380e+000    1.133e-001    
4.045    1.395    39.990      2.638         3.213     2.650    0.508      1.221e-004    0.530    3.363e+000    1.128e-001    
4.045    1.405    39.990      2.657         3.176     2.640    0.510      1.208e-004    0.536    3.335e+000    1.167e-001    
4.045    1.415    39.990      2.676         3.138     2.630    0.513      1.194e-004    0.542    3.278e+000    1.153e-001    
4.045    1.425    39.990      2.695         3.100     2.620    0.516      1.180e-004    0.548    3.165e+000    1.116e-001    
4.045    1.435    39.990      2.714         3.063     2.610    0.518      1.167e-004    0.554    3.101e+000    1.095e-001    
4.045    1.445    39.990      2.733         3.025     2.600    0.521      1.153e-004    0.560    3.115e+000    1.101e-001    
4.045    1.455    39.990      2.752         2.987     2.590    0.523      1.139e-004    0.566    3.155e+000    1.113e-001    
4.045    1.465    39.990      2.770         2.950     2.580    0.526      1.125e-004    0.572    2.871e+000    1.022e-001    
4.045    1.475    39.990      2.789         2.912     2.570    0.529      1.110e-004    0.578    2.936e+000    1.043e-001    
4.045    1.485    39.990      2.808         2.874     2.560    0.531      1.095e-004    0.585    2.799e+000    9.998e-002    
4.045    1.495    39.990      2.827         2.837     2.550    0.534      1.081e-004    0.591    2.753e+000    9.855e-002    
4.045    1.505    39.990      2.846         2.799     2.540    0.536      1.066e-004    0.597    2.626e+000    9.447e-002    
4.045    1.515    39.990      2.865         2.761     2.530    0.539      1.050e-004    0.603    2.469e+000    8.915e-002    
4.045    1.535    39.990      2.903         2.686     2.510    0.544      1.019e-004    0.616    2.356e+000    7.944e-002    
4.045    1.545    39.990      2.922         2.648     2.500    0.546      1.003e-004    0.623    2.275e+000    7.696e-002    
4.045    1.555    39.990      2.941         2.611     2.490    0.549      9.873e-005    0.629    2.176e+000    7.377e-002    
4.045    1.565    39.990      2.960         2.573     2.480    0.551      9.708e-005    0.636    2.136e+000    7.248e-002    
4.045    1.575    39.990      2.978         2.535     2.470    0.553      9.543e-005    0.642    1.965e+000    6.768e-002    
4.045    1.585    39.990      2.997         2.498     2.460    0.556      9.380e-005    0.649    1.906e+000    6.894e-002    
4.045    1.595    39.990      3.016         2.460     2.450    0.558      9.209e-005    0.656    1.854e+000    6.723e-002    
4.045    1.605    39.990      3.035         2.422     2.440    0.560      9.035e-005    0.663    1.842e+000    6.717e-002    
4.045    1.615    39.990      3.054         2.385     2.430    0.563      8.866e-005    0.670    1.816e+000    6.629e-002    
4.045    1.625    39.990      3.073         2.347     2.420    0.565      8.688e-005    0.677    1.695e+000    6.220e-002    
4.045    1.635    39.990      3.092         2.309     2.410    0.567      8.508e-005    0.684    1.712e+000    6.299e-002    
4.045    1.645    39.990      3.111         2.272     2.400    0.570      8.332e-005    0.691    1.664e+000    6.131e-002    
4.045    1.655    39.990      3.130         2.234     2.390    0.572      8.147e-005    0.698    1.603e+000    5.930e-002    
4.045    1.665    39.990      3.149         2.196     2.380    0.574      7.961e-005    0.705    1.521e+000    5.656e-002    
4.045    1.675    39.990      3.168         2.159     2.370    0.577      7.778e-005    0.712    1.411e+000    5.276e-002    
4.045    1.685    39.990      3.187         2.121     2.360    0.579      7.587e-005    0.720    1.380e+000    5.173e-002    
4.045    1.695    39.990      3.205         2.083     2.350    0.581      7.395e-005    0.727    1.226e+000    4.641e-002    
4.045    1.705    39.990      3.224         2.046     2.340    0.583      7.205e-005    0.734    1.210e+000    4.601e-002    
4.045    1.715    39.990      3.243         2.008     2.330    0.585      7.007e-005    0.742    1.166e+000    4.448e-002    
4.045    1.735    39.990      3.281         1.932     2.310    0.590      6.604e-005    0.757    1.042e+000    3.549e-002    
4.045    1.745    39.990      3.300         1.895     2.300    0.592      6.405e-005    0.765    9.420e-001    3.224e-002    
4.045    1.755    39.990      3.319         1.857     2.290    0.594      6.198e-005    0.772    9.241e-001    3.171e-002    
4.045    1.765    39.990      3.338         1.819     2.280    0.596      5.988e-005    0.780    8.702e-001    2.994e-002    
4.045    1.775    39.990      3.357         1.782     2.270    0.598      5.782e-005    0.788    8.206e-001    2.829e-002    
4.045    1.785    39.990      3.376         1.744     2.260    0.600      5.567e-005    0.796    7.562e-001    2.624e-002    
4.045    1.805    39.990      3.413         1.669     2.240    0.605      5.138e-005    0.812    7.298e-001    2.658e-002    
4.045    1.815    39.990      3.432         1.631     2.230    0.607      4.916e-005    0.820    7.087e-001    2.605e-002    
4.045    1.825    39.990      3.451         1.593     2.220    0.609      4.691e-005    0.828    7.014e-001    2.590e-002    
4.045    1.835    39.990      3.470         1.556     2.210    0.611      4.470e-005    0.837    7.242e-001    2.683e-002    
4.045    1.845    39.990      3.489         1.518     2.200    0.613      4.241e-005    0.845    7.274e-001    2.712e-002    
4.045    1.855    39.990      3.508         1.480     2.190    0.615      4.009e-005    0.854    7.020e-001    2.635e-002    
4.045    1.865    39.990      3.527         1.443     2.180    0.617      3.781e-005    0.862    6.131e-001    2.323e-002    
4.045    1.875    39.990      3.546         1.405     2.170    0.619      3.543e-005    0.871    5.247e-001    2.004e-002    
4.045    1.885    39.990      3.565         1.367     2.160    0.621      3.303e-005    0.879    3.711e-001    2.253e-002    
4.045    1.895    39.990      3.584         1.330     2.150    0.623      3.068e-005    0.888    2.773e-001    1.690e-002    
4.045    1.905    39.990      3.603         1.292     2.140    0.624      2.823e-005    0.897    1.753e-001    1.078e-002    
4.045    1.915    39.990      3.621         1.254     2.130    0.626      2.576e-005    0.906    1.169e-001    7.263e-003    
4.045    1.925    39.990      3.640         1.217     2.120    0.628      2.333e-005    0.915    7.404e-002    4.650e-003    
4.045    1.935    39.990      3.659         1.179     2.110    0.630      2.080e-005    0.924    3.492e-002    2.225e-003    
4.045    0.985    48.000      2.636         3.985     3.060    0.357      8.783e-005    0.459    2.576e+000    1.026e-001    
4.045    0.995    48.000      2.662         3.939     3.050    0.359      8.695e-005    0.465    2.474e+000    9.933e-002    
4.045    1.005    48.000      2.689         3.894     3.040    0.362      8.606e-005    0.471    2.331e+000    9.350e-002    
4.045    1.015    48.000      2.716         3.848     3.030    0.365      8.514e-005    0.478    2.285e+000    9.203e-002    
4.045    1.025    48.000      2.743         3.803     3.020    0.368      8.423e-005    0.484    2.302e+000    9.331e-002    
4.045    1.035    48.000      2.769         3.757     3.010    0.371      8.331e-005    0.490    2.242e+000    8.407e-002    
4.045    1.045    48.000      2.796         3.712     3.000    0.374      8.238e-005    0.497    2.106e+000    7.526e-002    
4.045    1.055    48.000      2.823         3.666     2.990    0.377      8.141e-005    0.503    2.046e+000    7.338e-002    
4.045    1.065    48.000      2.850         3.621     2.980    0.380      8.046e-005    0.510    1.982e+000    7.115e-002    
4.045    1.075    48.000      2.876         3.575     2.970    0.383      7.949e-005    0.516    1.938e+000    6.968e-002    
4.045    1.085    48.000      2.903         3.530     2.960    0.386      7.852e-005    0.523    1.869e+000    6.717e-002    
4.045    1.095    48.000      2.930         3.484     2.950    0.389      7.751e-005    0.529    1.809e+000    6.498e-002    
4.045    1.105    48.000      2.957         3.439     2.940    0.391      7.652e-005    0.536    1.749e+000    6.309e-002    
4.045    1.115    48.000      2.983         3.393     2.930    0.394      7.551e-005    0.543    1.587e+000    6.107e-002    
4.045    1.125    48.000      3.010         3.348     2.920    0.397      7.450e-005    0.549    1.569e+000    6.048e-002    
4.045    1.135    48.000      3.037         3.302     2.910    0.400      7.344e-005    0.556    1.644e+000    6.390e-002    
4.045    1.145    48.000      3.064         3.257     2.900    0.402      7.241e-005    0.563    1.493e+000    5.777e-002    
4.045    1.155    48.000      3.091         3.211     2.890    0.405      7.133e-005    0.570    1.511e+000    5.889e-002    
4.045    1.165    48.000      3.117         3.166     2.880    0.408      7.029e-005    0.577    1.393e+000    5.464e-002    
4.045    1.175    48.000      3.144         3.120     2.870    0.411      6.919e-005    0.584    1.417e+000    5.548e-002    
4.045    1.185    48.000      3.171         3.075     2.860    0.413      6.810e-005    0.591    1.334e+000    5.293e-002    
4.045    1.195    48.000      3.198         3.029     2.850    0.416      6.698e-005    0.598    1.387e+000    5.516e-002    
4.045    1.205    48.000      3.224         2.984     2.840    0.419      6.589e-005    0.605    1.273e+000    5.080e-002    
4.045    1.215    48.000      3.251         2.938     2.830    0.421      6.474e-005    0.612    1.237e+000    4.974e-002    
4.045    1.225    48.000      3.278         2.892     2.820    0.424      6.358e-005    0.619    1.210e+000    4.871e-002    
4.045    1.235    48.000      3.305         2.847     2.810    0.427      6.244e-005    0.627    1.156e+000    4.703e-002    
4.045    1.245    48.000      3.331         2.801     2.800    0.429      6.127e-005    0.634    1.050e+000    4.279e-002    
4.045    1.255    48.000      3.358         2.756     2.790    0.432      6.011e-005    0.641    1.064e+000    4.370e-002    
4.045    1.265    48.000      3.385         2.710     2.780    0.434      5.890e-005    0.649    9.802e-001    4.019e-002    
4.045    1.275    48.000      3.412         2.665     2.770    0.437      5.771e-005    0.656    1.024e+000    4.238e-002    
4.045    1.285    48.000      3.438         2.619     2.760    0.440      5.649e-005    0.664    9.466e-001    3.666e-002    
4.045    1.295    48.000      3.465         2.574     2.750    0.442      5.527e-005    0.671    8.536e-001    3.013e-002    
4.045    1.305    48.000      3.492         2.528     2.740    0.445      5.401e-005    0.679    7.942e-001    2.798e-002    
4.045    1.315    48.000      3.519         2.483     2.730    0.447      5.277e-005    0.687    7.806e-001    2.768e-002    
4.045    1.325    48.000      3.545         2.437     2.720    0.450      5.150e-005    0.695    7.557e-001    2.680e-002    
4.045    1.335    48.000      3.572         2.392     2.710    0.452      5.024e-005    0.702    7.424e-001    2.650e-002    
4.045    1.345    48.000      3.599         2.346     2.700    0.455      4.893e-005    0.710    6.926e-001    2.472e-002    
4.045    1.355    48.000      3.626         2.301     2.690    0.457      4.764e-005    0.718    6.769e-001    2.426e-002    
4.045    1.365    48.000      3.652         2.255     2.680    0.460      4.631e-005    0.726    6.248e-001    2.248e-002    
4.045    1.375    48.000      3.679         2.210     2.670    0.462      4.499e-005    0.734    6.177e-001    2.242e-002    
4.045    1.385    48.000      3.706         2.164     2.660    0.464      4.363e-005    0.742    5.572e-001    2.119e-002    
4.045    1.395    48.000      3.733         2.119     2.650    0.467      4.229e-005    0.751    5.269e-001    2.003e-002    
4.045    1.405    48.000      3.759         2.073     2.640    0.469      4.091e-005    0.759    4.712e-001    1.812e-002    
4.045    1.415    48.000      3.786         2.028     2.630    0.472      3.954e-005    0.767    4.597e-001    1.781e-002    
4.045    1.425    48.000      3.813         1.982     2.620    0.474      3.812e-005    0.776    4.152e-001    1.618e-002    
4.045    1.435    48.000      3.840         1.937     2.610    0.476      3.672e-005    0.784    3.770e-001    1.480e-002    
4.045    1.445    48.000      3.867         1.891     2.600    0.479      3.528e-005    0.793    3.649e-001    1.452e-002    
4.045    1.455    48.000      3.893         1.846     2.590    0.481      3.386e-005    0.801    3.311e-001    1.330e-002    
4.045    1.465    48.000      3.920         1.800     2.580    0.483      3.239e-005    0.810    3.342e-001    1.357e-002    
4.045    1.475    48.000      3.947         1.755     2.570    0.485      3.094e-005    0.818    3.107e-001    1.276e-002    
4.045    1.485    48.000      3.974         1.709     2.560    0.488      2.944e-005    0.827    2.921e-001    1.230e-002    
4.045    1.495    48.000      4.000         1.664     2.550    0.490      2.797e-005    0.836    3.024e-001    1.276e-002    
4.045    1.505    48.000      4.027         1.618     2.540    0.492      2.645e-005    0.845    2.639e-001    1.138e-002    
4.045    1.515    48.000      4.054         1.572     2.530    0.494      2.490e-005    0.854    2.657e-001    1.161e-002    
4.045    1.525    48.000      4.081         1.527     2.520    0.497      2.339e-005    0.863    2.428e-001    1.072e-002    
4.045    1.535    48.000      4.107         1.481     2.510    0.499      2.182e-005    0.872    2.015e-001    9.238e-003    
4.045    1.545    48.000      4.134         1.436     2.500    0.501      2.027e-005    0.881    1.757e-001    8.103e-003    
4.045    1.555    48.000      4.161         1.390     2.490    0.503      1.867e-005    0.890    1.352e-001    8.949e-003    
4.045    1.565    48.000      4.188         1.345     2.480    0.505      1.710e-005    0.900    8.762e-002    5.874e-003    
4.045    1.575    48.000      4.214         1.299     2.470    0.508      1.548e-005    0.909    5.318e-002    3.664e-003    
4.045    1.585    48.000      4.241         1.254     2.460    0.510      1.387e-005    0.919    3.269e-002    2.321e-003    
4.045    1.595    48.000      4.268         1.208     2.450    0.512      1.222e-005    0.928    1.651e-002    1.192e-003    
4.045    1.605    48.000      4.295         1.163     2.440    0.514      1.058e-005    0.938    1.056e-002    7.729e-004    
