#
# Source: https://hallcweb.jlab.org/resdata/database/
# SLAC experiment e61 hydrogen, with Whitlow normalization 1.011. 
# Uncertainties shown are statistical only. 
# At least 5% systematic uncertainties are estimated, but not reflected in this data set.
#
# E      EP       Theta       Q^2           W^2       Nu       Epsilon    Gamma         x        Sigma         Uncertainty
# (Gev)  (Gev)    (degrees)   ((Gev/c)^2)   (Gev^2)   (Gev)                                      (nb/Ser*Gev)
#
20.005   18.865   4.000       1.839         1.182     1.140    0.996      7.342e-003    0.859    2.556e+001    5.662e+000    
20.005   18.836   4.000       1.836         1.237     1.169    0.996      8.496e-003    0.837    7.420e+001    8.060e+000    
20.005   18.817   4.000       1.834         1.275     1.188    0.996      9.272e-003    0.823    1.202e+002    8.528e+000    
20.005   18.798   4.000       1.832         1.311     1.207    0.996      9.984e-003    0.809    1.844e+002    9.288e+000    
20.005   18.779   4.000       1.830         1.350     1.226    0.996      1.074e-002    0.796    2.604e+002    1.017e+001    
20.005   18.760   4.000       1.828         1.388     1.245    0.996      1.143e-002    0.783    3.917e+002    1.156e+001    
20.005   18.741   4.000       1.827         1.426     1.264    0.995      1.211e-002    0.770    5.196e+002    1.280e+001    
20.005   18.722   4.000       1.825         1.462     1.283    0.995      1.272e-002    0.758    6.249e+002    1.363e+001    
20.005   18.703   4.000       1.823         1.501     1.302    0.995      1.338e-002    0.746    6.957e+002    1.395e+001    
20.005   18.684   4.000       1.821         1.538     1.321    0.995      1.397e-002    0.735    7.179e+002    1.386e+001    
20.005   18.665   4.000       1.819         1.575     1.340    0.995      1.456e-002    0.723    6.536e+002    1.306e+001    
20.005   18.646   4.000       1.817         1.613     1.359    0.995      1.513e-002    0.713    5.879e+002    1.225e+001    
20.005   18.627   4.000       1.815         1.649     1.378    0.995      1.564e-002    0.702    5.747e+002    1.202e+001    
20.005   18.608   4.000       1.814         1.687     1.397    0.995      1.619e-002    0.692    5.504e+002    1.171e+001    
20.005   18.589   4.000       1.812         1.724     1.416    0.995      1.668e-002    0.682    5.280e+002    1.145e+001    
20.005   18.570   4.000       1.810         1.764     1.435    0.995      1.721e-002    0.672    5.346e+002    1.147e+001    
20.005   18.551   4.000       1.808         1.801     1.454    0.995      1.768e-002    0.663    5.262e+002    1.136e+001    
20.005   18.532   4.000       1.806         1.839     1.473    0.995      1.814e-002    0.653    5.270e+002    1.139e+001    
20.005   18.513   4.000       1.804         1.874     1.492    0.995      1.854e-002    0.644    5.113e+002    1.121e+001    
20.005   18.494   4.000       1.802         1.913     1.511    0.995      1.898e-002    0.636    5.425e+002    1.153e+001    
20.005   18.475   4.000       1.801         1.949     1.530    0.994      1.936e-002    0.627    5.346e+002    1.148e+001    
20.005   18.456   4.000       1.799         1.988     1.549    0.994      1.978e-002    0.619    5.588e+002    1.173e+001    
20.005   18.437   4.000       1.797         2.025     1.568    0.994      2.014e-002    0.611    5.747e+002    1.193e+001    
20.005   18.418   4.000       1.795         2.062     1.587    0.994      2.050e-002    0.603    6.143e+002    1.237e+001    
20.005   18.399   4.000       1.793         2.100     1.606    0.994      2.084e-002    0.595    6.471e+002    1.271e+001    
20.005   18.380   4.000       1.791         2.137     1.625    0.994      2.118e-002    0.587    6.875e+002    1.317e+001    
20.005   18.361   4.000       1.790         2.176     1.644    0.994      2.151e-002    0.580    8.109e+002    1.421e+001    
20.005   18.342   4.000       1.788         2.214     1.663    0.994      2.183e-002    0.573    8.770e+002    1.480e+001    
20.005   18.323   4.000       1.786         2.250     1.682    0.994      2.210e-002    0.566    9.853e+002    1.558e+001    
20.005   18.304   4.000       1.784         2.289     1.701    0.994      2.241e-002    0.559    1.025e+003    1.574e+001    
20.005   18.285   4.000       1.782         2.326     1.720    0.994      2.266e-002    0.552    9.826e+002    1.527e+001    
20.005   18.266   4.000       1.780         2.362     1.739    0.993      2.291e-002    0.546    9.318e+002    1.474e+001    
20.005   18.247   4.000       1.778         2.399     1.758    0.993      2.314e-002    0.539    8.932e+002    1.431e+001    
20.005   18.228   4.000       1.777         2.437     1.777    0.993      2.338e-002    0.533    8.448e+002    1.384e+001    
20.005   18.209   4.000       1.775         2.474     1.796    0.993      2.360e-002    0.527    7.965e+002    1.336e+001    
20.005   18.190   4.000       1.773         2.512     1.815    0.993      2.382e-002    0.521    7.585e+002    1.308e+001    
20.005   18.171   4.000       1.771         2.550     1.834    0.993      2.404e-002    0.515    7.650e+002    1.311e+001    
20.005   18.152   4.000       1.769         2.589     1.853    0.993      2.425e-002    0.509    7.812e+002    1.324e+001    
20.005   18.133   4.000       1.767         2.624     1.872    0.993      2.440e-002    0.503    7.868e+002    1.334e+001    
20.005   18.114   4.000       1.765         2.663     1.891    0.993      2.460e-002    0.497    7.914e+002    1.345e+001    
20.005   18.095   4.000       1.764         2.699     1.910    0.993      2.475e-002    0.492    8.309e+002    1.383e+001    
20.005   18.076   4.000       1.762         2.739     1.929    0.992      2.494e-002    0.487    8.962e+002    1.438e+001    
20.005   18.057   4.000       1.760         2.776     1.948    0.992      2.507e-002    0.481    9.916e+002    1.519e+001    
20.005   18.038   4.000       1.758         2.812     1.967    0.992      2.521e-002    0.476    1.019e+003    1.536e+001    
20.005   18.019   4.000       1.756         2.853     1.986    0.992      2.538e-002    0.471    1.073e+003    1.576e+001    
20.005   18.000   4.000       1.754         2.890     2.005    0.992      2.550e-002    0.466    1.087e+003    1.586e+001    
20.005   17.981   4.000       1.752         2.928     2.024    0.992      2.562e-002    0.461    1.140e+003    1.617e+001    
20.005   17.962   4.000       1.751         2.965     2.043    0.992      2.574e-002    0.457    1.115e+003    1.589e+001    
20.005   17.943   4.000       1.749         3.000     2.062    0.992      2.581e-002    0.452    1.093e+003    1.564e+001    
20.005   17.924   4.000       1.747         3.038     2.081    0.992      2.592e-002    0.447    1.063e+003    1.532e+001    
20.005   17.905   4.000       1.745         3.077     2.100    0.991      2.602e-002    0.443    1.005e+003    1.482e+001    
20.005   17.886   4.000       1.743         3.115     2.119    0.991      2.612e-002    0.438    1.007e+003    1.474e+001    
20.005   17.867   4.000       1.741         3.151     2.138    0.991      2.618e-002    0.434    9.556e+002    1.431e+001    
20.005   17.847   4.000       1.739         3.190     2.158    0.991      2.626e-002    0.430    9.275e+002    1.407e+001    
20.005   17.828   4.000       1.738         3.226     2.177    0.991      2.631e-002    0.425    9.160e+002    1.399e+001    
20.005   17.809   4.000       1.736         3.265     2.196    0.991      2.640e-002    0.421    9.192e+002    1.401e+001    
20.005   17.790   4.000       1.734         3.301     2.215    0.991      2.644e-002    0.417    9.408e+002    1.418e+001    
20.005   17.771   4.000       1.732         3.338     2.234    0.991      2.648e-002    0.413    9.226e+002    1.404e+001    
20.005   17.752   4.000       1.730         3.378     2.253    0.990      2.656e-002    0.409    9.548e+002    1.430e+001    
20.005   17.733   4.000       1.728         3.415     2.272    0.990      2.660e-002    0.405    9.520e+002    1.422e+001    
20.005   17.714   4.000       1.726         3.452     2.291    0.990      2.664e-002    0.402    9.159e+002    1.400e+001    
20.005   17.695   4.000       1.725         3.489     2.310    0.990      2.667e-002    0.398    9.595e+002    1.424e+001    
20.005   17.676   4.000       1.723         3.527     2.329    0.990      2.670e-002    0.394    9.446e+002    1.416e+001    
20.005   17.657   4.000       1.721         3.565     2.348    0.990      2.673e-002    0.391    9.733e+002    1.438e+001    
20.005   17.638   4.000       1.719         3.602     2.367    0.990      2.676e-002    0.387    9.802e+002    1.438e+001    
20.005   17.619   4.000       1.717         3.640     2.386    0.990      2.678e-002    0.384    9.637e+002    1.428e+001    
20.005   17.600   4.000       1.715         3.679     2.405    0.989      2.681e-002    0.380    9.789e+002    1.435e+001    
20.005   17.581   4.000       1.713         3.713     2.424    0.989      2.679e-002    0.377    9.475e+002    1.415e+001    
20.005   17.562   4.000       1.712         3.752     2.443    0.989      2.681e-002    0.373    9.975e+002    1.444e+001    
20.005   17.543   4.000       1.710         3.791     2.462    0.989      2.683e-002    0.370    9.693e+002    1.424e+001    
20.005   17.524   4.000       1.708         3.826     2.481    0.989      2.681e-002    0.367    9.549e+002    1.415e+001    
20.005   17.505   4.000       1.706         3.865     2.500    0.989      2.682e-002    0.364    9.801e+002    1.432e+001    
20.005   17.486   4.000       1.704         3.901     2.519    0.989      2.680e-002    0.361    9.452e+002    1.403e+001    
20.005   17.467   4.000       1.702         3.940     2.538    0.988      2.681e-002    0.357    9.442e+002    1.399e+001    
20.005   17.448   4.000       1.701         3.976     2.557    0.988      2.679e-002    0.354    9.579e+002    1.408e+001    
18.010   17.050   4.000       1.496         1.184     0.960    0.996      9.635e-003    0.830    4.110e+001    1.418e+001    
18.010   17.025   4.000       1.494         1.234     0.985    0.996      1.101e-002    0.808    1.408e+002    2.049e+001    
18.010   17.007   4.000       1.492         1.268     1.003    0.996      1.188e-002    0.793    2.306e+002    2.135e+001    
18.010   16.990   4.000       1.491         1.302     1.020    0.996      1.274e-002    0.779    3.163e+002    2.246e+001    
18.010   16.973   4.000       1.489         1.336     1.037    0.996      1.359e-002    0.765    4.443e+002    2.448e+001    
18.010   16.956   4.000       1.488         1.371     1.054    0.996      1.443e-002    0.752    6.259e+002    2.714e+001    
18.010   16.939   4.000       1.486         1.404     1.071    0.996      1.518e-002    0.740    8.687e+002    3.051e+001    
18.010   16.921   4.000       1.485         1.438     1.089    0.996      1.591e-002    0.727    1.133e+003    3.360e+001    
18.010   16.904   4.000       1.483         1.471     1.106    0.996      1.663e-002    0.715    1.354e+003    3.545e+001    
18.010   16.887   4.000       1.482         1.506     1.123    0.996      1.734e-002    0.703    1.378e+003    3.516e+001    
18.010   16.870   4.000       1.480         1.540     1.140    0.995      1.804e-002    0.692    1.327e+003    3.398e+001    
18.010   16.853   4.000       1.479         1.573     1.157    0.995      1.866e-002    0.681    1.301e+003    3.289e+001    
18.010   16.835   4.000       1.477         1.608     1.175    0.995      1.931e-002    0.670    1.190e+003    3.117e+001    
18.010   16.818   4.000       1.476         1.641     1.192    0.995      1.991e-002    0.660    1.075e+003    2.938e+001    
18.010   16.801   4.000       1.474         1.674     1.209    0.995      2.048e-002    0.650    1.037e+003    2.871e+001    
18.010   16.784   4.000       1.473         1.708     1.226    0.995      2.105e-002    0.640    9.377e+002    2.730e+001    
18.010   16.766   4.000       1.471         1.742     1.244    0.995      2.159e-002    0.630    9.071e+002    2.682e+001    
18.010   16.749   4.000       1.470         1.777     1.261    0.995      2.213e-002    0.621    8.689e+002    2.635e+001    
18.010   16.732   4.000       1.468         1.809     1.278    0.995      2.259e-002    0.612    8.906e+002    2.661e+001    
18.010   16.715   4.000       1.467         1.844     1.295    0.995      2.311e-002    0.603    9.213e+002    2.695e+001    
18.010   16.698   4.000       1.465         1.877     1.312    0.995      2.355e-002    0.595    9.519e+002    2.736e+001    
18.010   16.680   4.000       1.464         1.910     1.330    0.995      2.396e-002    0.586    9.146e+002    2.683e+001    
18.010   16.663   4.000       1.462         1.946     1.347    0.995      2.444e-002    0.578    9.571e+002    2.754e+001    
18.010   16.646   4.000       1.461         1.980     1.364    0.994      2.485e-002    0.571    9.735e+002    2.760e+001    
18.010   16.629   4.000       1.459         2.014     1.381    0.994      2.525e-002    0.563    1.048e+003    2.879e+001    
18.010   16.612   4.000       1.458         2.045     1.398    0.994      2.558e-002    0.556    9.839e+002    2.819e+001    
18.010   16.594   4.000       1.456         2.079     1.416    0.994      2.594e-002    0.548    1.155e+003    3.020e+001    
18.010   16.577   4.000       1.455         2.114     1.433    0.994      2.631e-002    0.541    1.137e+003    3.026e+001    
18.010   16.560   4.000       1.453         2.146     1.450    0.994      2.661e-002    0.534    1.246e+003    3.166e+001    
18.010   16.543   4.000       1.452         2.182     1.467    0.994      2.696e-002    0.527    1.384e+003    3.332e+001    
18.010   16.526   4.000       1.450         2.214     1.484    0.994      2.724e-002    0.521    1.545e+003    3.513e+001    
18.010   16.508   4.000       1.448         2.250     1.502    0.994      2.755e-002    0.514    1.671e+003    3.624e+001    
18.010   16.491   4.000       1.447         2.283     1.519    0.994      2.782e-002    0.508    1.710e+003    3.649e+001    
18.010   16.474   4.000       1.445         2.316     1.536    0.994      2.807e-002    0.501    1.719e+003    3.619e+001    
18.010   16.457   4.000       1.444         2.350     1.553    0.994      2.832e-002    0.495    1.581e+003    3.448e+001    
18.010   16.440   4.000       1.442         2.384     1.570    0.993      2.857e-002    0.490    1.475e+003    3.307e+001    
18.010   16.422   4.000       1.441         2.418     1.588    0.993      2.878e-002    0.484    1.449e+003    3.245e+001    
18.010   16.405   4.000       1.439         2.452     1.605    0.993      2.901e-002    0.478    1.317e+003    3.099e+001    
18.010   16.388   4.000       1.438         2.487     1.622    0.993      2.923e-002    0.472    1.271e+003    3.041e+001    
18.010   16.371   4.000       1.436         2.519     1.639    0.993      2.939e-002    0.467    1.275e+003    3.038e+001    
18.010   16.354   4.000       1.435         2.554     1.656    0.993      2.959e-002    0.462    1.249e+003    3.014e+001    
18.010   16.336   4.000       1.433         2.586     1.674    0.993      2.972e-002    0.456    1.249e+003    3.014e+001    
18.010   16.319   4.000       1.432         2.621     1.691    0.993      2.991e-002    0.451    1.277e+003    3.054e+001    
18.010   16.302   4.000       1.430         2.654     1.708    0.993      3.005e-002    0.446    1.377e+003    3.175e+001    
18.010   16.285   4.000       1.429         2.690     1.725    0.993      3.023e-002    0.441    1.403e+003    3.209e+001    
18.010   16.268   4.000       1.427         2.722     1.742    0.992      3.036e-002    0.437    1.485e+003    3.314e+001    
18.010   16.250   4.000       1.426         2.756     1.760    0.992      3.045e-002    0.432    1.585e+003    3.435e+001    
18.010   16.233   4.000       1.424         2.789     1.777    0.992      3.057e-002    0.427    1.576e+003    3.419e+001    
18.010   16.216   4.000       1.423         2.822     1.794    0.992      3.068e-002    0.423    1.690e+003    3.546e+001    
18.010   16.199   4.000       1.421         2.856     1.811    0.992      3.079e-002    0.418    1.829e+003    3.679e+001    
18.010   16.182   4.000       1.420         2.890     1.828    0.992      3.089e-002    0.414    1.797e+003    3.643e+001    
18.010   16.164   4.000       1.418         2.924     1.846    0.992      3.096e-002    0.409    1.829e+003    3.656e+001    
18.010   16.147   4.000       1.417         2.958     1.863    0.992      3.106e-002    0.405    1.694e+003    3.513e+001    
18.010   16.130   4.000       1.415         2.993     1.880    0.992      3.115e-002    0.401    1.745e+003    3.540e+001    
18.010   16.113   4.000       1.414         3.028     1.897    0.991      3.123e-002    0.397    1.596e+003    3.377e+001    
18.010   16.096   4.000       1.412         3.059     1.914    0.991      3.126e-002    0.393    1.585e+003    3.339e+001    
18.010   16.078   4.000       1.411         3.094     1.932    0.991      3.132e-002    0.389    1.494e+003    3.235e+001    
18.010   16.061   4.000       1.409         3.129     1.949    0.991      3.139e-002    0.385    1.449e+003    3.186e+001    
18.010   16.044   4.000       1.408         3.161     1.966    0.991      3.142e-002    0.382    1.405e+003    3.135e+001    
18.010   16.027   4.000       1.406         3.197     1.983    0.991      3.149e-002    0.378    1.414e+003    3.124e+001    
18.010   16.009   4.000       1.405         3.229     2.001    0.991      3.148e-002    0.374    1.415e+003    3.138e+001    
18.010   15.992   4.000       1.403         3.262     2.018    0.991      3.150e-002    0.371    1.414e+003    3.143e+001    
18.010   15.975   4.000       1.402         3.298     2.035    0.990      3.156e-002    0.367    1.410e+003    3.114e+001    
18.010   15.958   4.000       1.400         3.331     2.052    0.990      3.157e-002    0.364    1.398e+003    3.119e+001    
18.010   15.941   4.000       1.399         3.364     2.069    0.990      3.158e-002    0.360    1.397e+003    3.114e+001    
18.010   15.923   4.000       1.397         3.397     2.087    0.990      3.156e-002    0.357    1.426e+003    3.137e+001    
18.010   15.906   4.000       1.396         3.434     2.104    0.990      3.161e-002    0.353    1.426e+003    3.156e+001    
18.010   15.889   4.000       1.394         3.467     2.121    0.990      3.161e-002    0.350    1.442e+003    3.152e+001    
18.010   15.872   4.000       1.393         3.501     2.138    0.990      3.161e-002    0.347    1.479e+003    3.199e+001    
18.010   15.855   4.000       1.391         3.534     2.155    0.990      3.161e-002    0.344    1.408e+003    3.126e+001    
18.010   15.837   4.000       1.390         3.568     2.173    0.989      3.158e-002    0.341    1.384e+003    3.116e+001    
18.010   15.820   4.000       1.388         3.602     2.190    0.989      3.158e-002    0.338    1.443e+003    3.161e+001    
18.010   15.803   4.000       1.387         3.633     2.207    0.989      3.153e-002    0.335    1.446e+003    3.159e+001    
18.010   15.786   4.000       1.385         3.667     2.224    0.989      3.152e-002    0.332    1.509e+003    3.214e+001    
18.010   15.769   4.000       1.384         3.702     2.241    0.989      3.151e-002    0.329    1.462e+003    3.175e+001    
18.010   15.751   4.000       1.382         3.736     2.259    0.989      3.148e-002    0.326    1.424e+003    3.133e+001    
18.010   15.734   4.000       1.381         3.771     2.276    0.989      3.146e-002    0.323    1.440e+003    3.137e+001    
18.010   15.717   4.000       1.379         3.803     2.293    0.988      3.141e-002    0.320    1.469e+003    3.172e+001    
18.010   15.700   4.000       1.378         3.838     2.310    0.988      3.139e-002    0.318    1.380e+003    3.066e+001    
18.010   15.683   4.000       1.376         3.873     2.327    0.988      3.138e-002    0.315    1.399e+003    3.093e+001    
18.010   15.665   4.000       1.374         3.905     2.345    0.988      3.130e-002    0.312    1.439e+003    3.118e+001    
18.010   15.648   4.000       1.373         3.940     2.362    0.988      3.128e-002    0.310    1.415e+003    3.104e+001    
18.010   15.631   4.000       1.372         3.972     2.379    0.988      3.122e-002    0.307    1.418e+003    3.090e+001    
16.000   15.216   4.000       1.186         1.166     0.784    0.996      1.225e-002    0.806    1.969e+002    3.387e+001    
16.000   15.201   4.000       1.185         1.195     0.799    0.996      1.328e-002    0.790    2.311e+002    3.225e+001    
16.000   15.185   4.000       1.184         1.225     0.815    0.996      1.437e-002    0.774    2.965e+002    3.185e+001    
16.000   15.170   4.000       1.183         1.257     0.830    0.996      1.546e-002    0.759    4.988e+002    3.363e+001    
16.000   15.155   4.000       1.181         1.286     0.845    0.996      1.644e-002    0.745    6.746e+002    3.562e+001    
16.000   15.139   4.000       1.180         1.316     0.861    0.996      1.738e-002    0.730    8.848e+002    3.784e+001    
16.000   15.124   4.000       1.179         1.346     0.876    0.996      1.833e-002    0.717    1.267e+003    4.216e+001    
16.000   15.108   4.000       1.178         1.376     0.892    0.996      1.924e-002    0.704    1.664e+003    4.632e+001    
16.000   15.093   4.000       1.177         1.407     0.907    0.996      2.014e-002    0.691    2.164e+003    5.095e+001    
16.000   15.078   4.000       1.175         1.435     0.922    0.996      2.094e-002    0.679    2.634e+003    5.467e+001    
16.000   15.062   4.000       1.174         1.467     0.938    0.996      2.180e-002    0.667    2.885e+003    5.604e+001    
16.000   15.047   4.000       1.173         1.496     0.953    0.996      2.256e-002    0.656    2.879e+003    5.516e+001    
16.000   15.032   4.000       1.172         1.525     0.968    0.996      2.331e-002    0.645    2.735e+003    5.277e+001    
16.000   15.016   4.000       1.171         1.555     0.984    0.996      2.402e-002    0.634    2.532e+003    5.010e+001    
16.000   15.001   4.000       1.169         1.585     0.999    0.995      2.474e-002    0.624    2.325e+003    4.750e+001    
16.000   14.986   4.000       1.168         1.615     1.014    0.995      2.544e-002    0.614    2.097e+003    4.483e+001    
16.000   14.970   4.000       1.167         1.646     1.030    0.995      2.610e-002    0.604    1.920e+003    4.262e+001    
16.000   14.955   4.000       1.166         1.677     1.045    0.995      2.677e-002    0.594    1.765e+003    4.086e+001    
16.000   14.939   4.000       1.165         1.706     1.061    0.995      2.731e-002    0.585    1.672e+003    3.973e+001    
16.000   14.924   4.000       1.163         1.737     1.076    0.995      2.795e-002    0.576    1.663e+003    3.929e+001    
16.000   14.909   4.000       1.162         1.766     1.091    0.995      2.849e-002    0.568    1.602e+003    3.842e+001    
16.000   14.893   4.000       1.161         1.796     1.107    0.995      2.899e-002    0.559    1.587e+003    3.823e+001    
16.000   14.878   4.000       1.160         1.825     1.122    0.995      2.950e-002    0.551    1.458e+003    3.683e+001    
16.000   14.863   4.000       1.159         1.855     1.137    0.995      2.999e-002    0.543    1.564e+003    3.780e+001    
16.000   14.847   4.000       1.157         1.885     1.153    0.995      3.045e-002    0.535    1.549e+003    3.763e+001    
16.000   14.832   4.000       1.156         1.915     1.168    0.995      3.092e-002    0.527    1.598e+003    3.818e+001    
16.000   14.817   4.000       1.155         1.946     1.183    0.995      3.138e-002    0.520    1.582e+003    3.802e+001    
16.000   14.801   4.000       1.154         1.977     1.199    0.995      3.180e-002    0.513    1.681e+003    3.910e+001    
16.000   14.786   4.000       1.153         2.005     1.214    0.994      3.215e-002    0.506    1.715e+003    3.962e+001    
16.000   14.771   4.000       1.151         2.036     1.229    0.994      3.257e-002    0.499    1.795e+003    4.055e+001    
16.000   14.755   4.000       1.150         2.065     1.245    0.994      3.287e-002    0.492    1.796e+003    4.068e+001    
16.000   14.740   4.000       1.149         2.097     1.260    0.994      3.327e-002    0.486    1.930e+003    4.213e+001    
16.000   14.724   4.000       1.148         2.126     1.276    0.994      3.355e-002    0.479    2.030e+003    4.344e+001    
16.000   14.709   4.000       1.147         2.155     1.291    0.994      3.385e-002    0.473    2.292e+003    4.600e+001    
16.000   14.694   4.000       1.145         2.187     1.306    0.994      3.422e-002    0.467    2.668e+003    4.939e+001    
16.000   14.678   4.000       1.144         2.217     1.322    0.994      3.447e-002    0.461    2.781e+003    5.068e+001    
16.000   14.663   4.000       1.143         2.247     1.337    0.994      3.474e-002    0.456    2.822e+003    5.092e+001    
16.000   14.648   4.000       1.142         2.277     1.352    0.994      3.501e-002    0.450    2.919e+003    5.150e+001    
16.000   14.632   4.000       1.141         2.307     1.368    0.994      3.523e-002    0.444    2.761e+003    4.974e+001    
16.000   14.617   4.000       1.139         2.338     1.383    0.994      3.548e-002    0.439    2.760e+003    4.933e+001    
16.000   14.602   4.000       1.138         2.365     1.398    0.993      3.564e-002    0.434    2.476e+003    4.638e+001    
16.000   14.586   4.000       1.137         2.396     1.414    0.993      3.584e-002    0.428    2.437e+003    4.561e+001    
16.000   14.571   4.000       1.136         2.427     1.429    0.993      3.606e-002    0.424    2.192e+003    4.334e+001    
16.000   14.555   4.000       1.135         2.455     1.445    0.993      3.617e-002    0.418    2.110e+003    4.231e+001    
16.000   14.540   4.000       1.133         2.487     1.460    0.993      3.638e-002    0.414    2.094e+003    4.186e+001    
16.000   14.525   4.000       1.132         2.515     1.475    0.993      3.651e-002    0.409    2.063e+003    4.167e+001    
16.000   14.509   4.000       1.131         2.547     1.491    0.993      3.667e-002    0.404    2.041e+003    4.146e+001    
16.000   14.494   4.000       1.130         2.576     1.506    0.993      3.679e-002    0.400    1.978e+003    4.091e+001    
16.000   14.479   4.000       1.129         2.608     1.521    0.993      3.697e-002    0.395    2.050e+003    4.164e+001    
16.000   14.463   4.000       1.127         2.637     1.537    0.993      3.705e-002    0.391    2.085e+003    4.206e+001    
16.000   14.448   4.000       1.126         2.667     1.552    0.992      3.715e-002    0.387    2.265e+003    4.377e+001    
16.000   14.433   4.000       1.125         2.696     1.567    0.992      3.725e-002    0.383    2.239e+003    4.388e+001    
16.000   14.417   4.000       1.124         2.726     1.583    0.992      3.730e-002    0.378    2.401e+003    4.541e+001    
16.000   14.402   4.000       1.123         2.756     1.598    0.992      3.739e-002    0.374    2.514e+003    4.654e+001    
16.000   14.386   4.000       1.121         2.786     1.614    0.992      3.744e-002    0.370    2.605e+003    4.744e+001    
16.000   14.371   4.000       1.120         2.816     1.629    0.992      3.752e-002    0.366    2.693e+003    4.825e+001    
16.000   14.356   4.000       1.119         2.846     1.644    0.992      3.759e-002    0.363    2.760e+003    4.871e+001    
16.000   14.340   4.000       1.118         2.876     1.660    0.992      3.763e-002    0.359    2.774e+003    4.892e+001    
16.000   14.325   4.000       1.117         2.907     1.675    0.992      3.770e-002    0.355    2.788e+003    4.873e+001    
16.000   14.310   4.000       1.115         2.938     1.690    0.991      3.776e-002    0.352    2.694e+003    4.763e+001    
16.000   14.294   4.000       1.114         2.965     1.706    0.991      3.772e-002    0.348    2.658e+003    4.698e+001    
16.000   14.279   4.000       1.113         2.996     1.721    0.991      3.778e-002    0.345    2.505e+003    4.531e+001    
16.000   14.264   4.000       1.112         3.028     1.736    0.991      3.783e-002    0.341    2.407e+003    4.374e+001    
16.000   14.248   4.000       1.111         3.056     1.752    0.991      3.778e-002    0.338    2.398e+003    4.268e+001    
16.000   14.233   4.000       1.109         3.087     1.767    0.991      3.783e-002    0.335    2.248e+003    4.061e+001    
16.000   14.218   4.000       1.108         3.119     1.782    0.991      3.787e-002    0.331    2.190e+003    3.929e+001    
16.000   14.202   4.000       1.107         3.147     1.798    0.991      3.781e-002    0.328    2.121e+003    3.795e+001    
16.000   14.187   4.000       1.106         3.176     1.813    0.990      3.779e-002    0.325    2.197e+003    3.784e+001    
16.000   14.171   4.000       1.105         3.208     1.829    0.990      3.779e-002    0.322    2.111e+003    3.653e+001    
16.000   14.156   4.000       1.103         3.236     1.844    0.990      3.777e-002    0.319    2.096e+003    3.589e+001    
16.000   14.141   4.000       1.102         3.269     1.859    0.990      3.779e-002    0.316    2.137e+003    3.590e+001    
16.000   14.125   4.000       1.101         3.298     1.875    0.990      3.773e-002    0.313    2.097e+003    3.497e+001    
16.000   14.110   4.000       1.100         3.327     1.890    0.990      3.770e-002    0.310    2.122e+003    3.465e+001    
16.000   14.095   4.000       1.099         3.356     1.905    0.990      3.766e-002    0.307    2.095e+003    3.389e+001    
16.000   14.079   4.000       1.097         3.386     1.921    0.989      3.760e-002    0.304    2.147e+003    3.379e+001    
16.000   14.064   4.000       1.096         3.419     1.936    0.989      3.761e-002    0.302    2.059e+003    3.266e+001    
16.000   14.049   4.000       1.095         3.448     1.951    0.989      3.757e-002    0.299    2.126e+003    3.263e+001    
16.000   14.033   4.000       1.094         3.478     1.967    0.989      3.750e-002    0.296    2.083e+003    3.188e+001    
16.000   14.018   4.000       1.093         3.508     1.982    0.989      3.746e-002    0.294    2.139e+003    3.194e+001    
16.000   14.002   4.000       1.091         3.538     1.998    0.989      3.739e-002    0.291    2.142e+003    3.170e+001    
16.000   13.987   4.000       1.090         3.568     2.013    0.989      3.734e-002    0.289    2.195e+003    3.177e+001    
16.000   13.972   4.000       1.089         3.599     2.028    0.988      3.730e-002    0.286    2.131e+003    3.123e+001    
16.000   13.956   4.000       1.088         3.629     2.044    0.988      3.722e-002    0.284    2.142e+003    3.096e+001    
16.000   13.941   4.000       1.087         3.656     2.059    0.988      3.712e-002    0.281    2.121e+003    3.062e+001    
16.000   13.926   4.000       1.086         3.686     2.074    0.988      3.707e-002    0.279    2.126e+003    3.028e+001    
16.000   13.910   4.000       1.084         3.717     2.090    0.988      3.699e-002    0.276    2.115e+003    2.979e+001    
16.000   13.895   4.000       1.083         3.748     2.105    0.988      3.694e-002    0.274    2.106e+003    2.931e+001    
16.000   13.880   4.000       1.082         3.779     2.120    0.988      3.689e-002    0.272    2.105e+003    2.923e+001    
16.000   13.864   4.000       1.081         3.806     2.136    0.987      3.676e-002    0.270    2.107e+003    2.904e+001    
16.000   13.849   4.000       1.080         3.838     2.151    0.987      3.671e-002    0.267    2.062e+003    2.870e+001    
16.000   13.833   4.000       1.078         3.869     2.167    0.987      3.663e-002    0.265    1.950e+003    2.806e+001    
16.000   13.818   4.000       1.077         3.897     2.182    0.987      3.653e-002    0.263    2.012e+003    2.828e+001    
16.000   13.803   4.000       1.076         3.928     2.197    0.987      3.647e-002    0.261    1.997e+003    2.824e+001    
16.000   13.787   4.000       1.075         3.956     2.213    0.987      3.634e-002    0.259    2.033e+003    2.823e+001    
16.000   13.772   4.000       1.074         3.988     2.228    0.986      3.629e-002    0.257    2.010e+003    2.825e+001    
13.000   12.431   4.000       0.787         1.160     0.569    0.997      1.950e-002    0.737    2.615e+002    4.227e+001    
13.000   12.418   4.000       0.786         1.186     0.582    0.997      2.103e-002    0.720    4.779e+002    4.073e+001    
13.000   12.406   4.000       0.786         1.210     0.594    0.996      2.240e-002    0.705    7.330e+002    4.036e+001    
13.000   12.393   4.000       0.785         1.234     0.607    0.996      2.372e-002    0.689    1.122e+003    4.122e+001    
13.000   12.381   4.000       0.784         1.259     0.619    0.996      2.504e-002    0.675    1.513e+003    4.234e+001    
13.000   12.368   4.000       0.783         1.284     0.632    0.996      2.631e-002    0.660    1.938e+003    4.403e+001    
13.000   12.356   4.000       0.783         1.306     0.644    0.996      2.743e-002    0.648    2.462e+003    4.625e+001    
13.000   12.343   4.000       0.782         1.332     0.657    0.996      2.864e-002    0.634    3.303e+003    4.955e+001    
13.000   12.330   4.000       0.781         1.355     0.670    0.996      2.968e-002    0.621    4.171e+003    5.300e+001    
13.000   12.318   4.000       0.780         1.381     0.682    0.996      3.087e-002    0.610    5.296e+003    5.717e+001    
13.000   12.305   4.000       0.779         1.404     0.695    0.996      3.186e-002    0.598    6.429e+003    6.142e+001    
13.000   12.293   4.000       0.779         1.428     0.707    0.996      3.286e-002    0.587    7.504e+003    6.442e+001    
13.000   12.280   4.000       0.778         1.454     0.720    0.996      3.394e-002    0.576    8.218e+003    6.616e+001    
13.000   12.268   4.000       0.777         1.479     0.732    0.996      3.489e-002    0.566    8.435e+003    6.608e+001    
13.000   12.255   4.000       0.776         1.503     0.745    0.996      3.578e-002    0.555    8.255e+003    6.427e+001    
13.000   12.242   4.000       0.775         1.528     0.758    0.996      3.664e-002    0.545    7.569e+003    6.115e+001    
13.000   12.230   4.000       0.775         1.550     0.770    0.996      3.738e-002    0.536    6.975e+003    5.813e+001    
13.000   12.217   4.000       0.774         1.575     0.783    0.996      3.820e-002    0.527    6.269e+003    5.471e+001    
13.000   12.205   4.000       0.773         1.600     0.795    0.996      3.903e-002    0.518    5.754e+003    5.231e+001    
13.000   12.192   4.000       0.772         1.626     0.808    0.996      3.980e-002    0.509    5.212e+003    4.974e+001    
13.000   12.179   4.000       0.771         1.649     0.821    0.995      4.042e-002    0.501    4.765e+003    4.783e+001    
13.000   12.167   4.000       0.771         1.672     0.833    0.995      4.105e-002    0.493    4.383e+003    4.626e+001    
13.000   12.154   4.000       0.770         1.698     0.846    0.995      4.176e-002    0.485    4.177e+003    4.508e+001    
13.000   12.142   4.000       0.769         1.721     0.858    0.995      4.236e-002    0.478    3.961e+003    4.408e+001    
13.000   12.129   4.000       0.768         1.745     0.871    0.995      4.289e-002    0.470    3.816e+003    4.318e+001    
13.000   12.117   4.000       0.767         1.772     0.883    0.995      4.359e-002    0.463    3.734e+003    4.286e+001    
13.000   12.104   4.000       0.767         1.796     0.896    0.995      4.409e-002    0.456    3.616e+003    4.248e+001    
13.000   12.091   4.000       0.766         1.820     0.909    0.995      4.456e-002    0.449    3.534e+003    4.221e+001    
13.000   12.079   4.000       0.765         1.844     0.921    0.995      4.508e-002    0.443    3.453e+003    4.163e+001    
13.000   12.066   4.000       0.764         1.869     0.934    0.995      4.552e-002    0.436    3.401e+003    4.182e+001    
13.000   12.054   4.000       0.763         1.893     0.946    0.995      4.600e-002    0.430    3.452e+003    4.224e+001    
13.000   12.041   4.000       0.763         1.918     0.959    0.995      4.641e-002    0.424    3.507e+003    4.236e+001    
13.000   12.029   4.000       0.762         1.940     0.971    0.995      4.674e-002    0.418    3.520e+003    4.287e+001    
13.000   12.016   4.000       0.761         1.966     0.984    0.994      4.712e-002    0.412    3.526e+003    4.293e+001    
13.000   12.003   4.000       0.760         1.991     0.997    0.994      4.749e-002    0.406    3.676e+003    4.374e+001    
13.000   11.991   4.000       0.759         2.014     1.009    0.994      4.778e-002    0.401    3.699e+003    4.428e+001    
13.000   11.978   4.000       0.759         2.039     1.022    0.994      4.812e-002    0.396    3.859e+003    4.549e+001    
13.000   11.966   4.000       0.758         2.062     1.034    0.994      4.838e-002    0.391    4.035e+003    4.677e+001    
13.000   11.953   4.000       0.757         2.088     1.047    0.994      4.870e-002    0.385    4.082e+003    4.761e+001    
13.000   11.941   4.000       0.756         2.111     1.059    0.994      4.894e-002    0.381    4.467e+003    4.971e+001    
13.000   11.928   4.000       0.755         2.137     1.072    0.994      4.923e-002    0.376    4.541e+003    5.053e+001    
13.000   11.915   4.000       0.755         2.161     1.085    0.994      4.939e-002    0.371    4.845e+003    5.237e+001    
13.000   11.903   4.000       0.754         2.184     1.097    0.994      4.960e-002    0.366    5.252e+003    5.481e+001    
13.000   11.890   4.000       0.753         2.211     1.110    0.994      4.986e-002    0.362    5.830e+003    5.725e+001    
13.000   11.878   4.000       0.752         2.235     1.122    0.994      5.005e-002    0.357    5.899e+003    5.781e+001    
13.000   11.865   4.000       0.751         2.259     1.135    0.993      5.017e-002    0.353    6.096e+003    5.863e+001    
13.000   11.853   4.000       0.751         2.283     1.147    0.993      5.034e-002    0.349    5.881e+003    5.742e+001    
13.000   11.840   4.000       0.750         2.307     1.160    0.993      5.045e-002    0.344    5.835e+003    5.677e+001    
13.000   11.827   4.000       0.749         2.332     1.173    0.993      5.055e-002    0.340    5.492e+003    5.487e+001    
13.000   11.815   4.000       0.748         2.356     1.185    0.993      5.070e-002    0.337    5.299e+003    5.349e+001    
13.000   11.802   4.000       0.747         2.381     1.198    0.993      5.078e-002    0.332    5.040e+003    5.155e+001    
13.000   11.790   4.000       0.747         2.406     1.210    0.993      5.092e-002    0.329    4.801e+003    5.027e+001    
13.000   11.777   4.000       0.746         2.430     1.223    0.993      5.098e-002    0.325    4.560e+003    4.885e+001    
13.000   11.765   4.000       0.745         2.452     1.235    0.993      5.100e-002    0.322    4.361e+003    4.761e+001    
13.000   11.752   4.000       0.744         2.477     1.248    0.993      5.106e-002    0.318    4.233e+003    4.733e+001    
13.000   11.739   4.000       0.743         2.503     1.261    0.992      5.111e-002    0.314    4.160e+003    4.660e+001    
13.000   11.727   4.000       0.743         2.528     1.273    0.992      5.121e-002    0.311    4.164e+003    4.654e+001    
13.000   11.714   4.000       0.742         2.550     1.286    0.992      5.115e-002    0.307    4.031e+003    4.605e+001    
13.000   11.702   4.000       0.741         2.576     1.298    0.992      5.124e-002    0.304    4.134e+003    4.618e+001    
13.000   11.689   4.000       0.740         2.599     1.311    0.992      5.117e-002    0.301    4.240e+003    4.720e+001    
13.000   11.676   4.000       0.739         2.624     1.324    0.992      5.119e-002    0.298    4.168e+003    4.684e+001    
13.000   11.664   4.000       0.739         2.650     1.336    0.992      5.127e-002    0.295    4.320e+003    4.804e+001    
13.000   11.651   4.000       0.738         2.673     1.349    0.992      5.118e-002    0.291    4.507e+003    4.913e+001    
13.000   11.639   4.000       0.737         2.696     1.361    0.992      5.116e-002    0.289    4.524e+003    4.985e+001    
13.000   11.626   4.000       0.736         2.722     1.374    0.991      5.116e-002    0.286    4.790e+003    5.112e+001    
13.000   11.614   4.000       0.736         2.746     1.386    0.991      5.113e-002    0.283    4.876e+003    5.201e+001    
13.000   11.601   4.000       0.735         2.772     1.399    0.991      5.112e-002    0.280    5.197e+003    5.341e+001    
13.000   11.588   4.000       0.734         2.796     1.412    0.991      5.102e-002    0.277    5.170e+003    5.387e+001    
13.000   11.576   4.000       0.733         2.819     1.424    0.991      5.098e-002    0.274    5.328e+003    5.428e+001    
13.000   11.563   4.000       0.732         2.843     1.437    0.991      5.088e-002    0.272    5.319e+003    5.449e+001    
13.000   11.551   4.000       0.732         2.870     1.449    0.991      5.092e-002    0.269    5.243e+003    5.413e+001    
13.000   11.538   4.000       0.731         2.893     1.462    0.991      5.081e-002    0.266    5.238e+003    5.404e+001    
13.000   11.526   4.000       0.730         2.917     1.474    0.990      5.075e-002    0.264    5.120e+003    5.351e+001    
13.000   11.513   4.000       0.729         2.941     1.487    0.990      5.064e-002    0.261    5.064e+003    5.323e+001    
13.000   11.500   4.000       0.728         2.965     1.500    0.990      5.053e-002    0.259    4.920e+003    5.226e+001    
13.000   11.488   4.000       0.728         2.989     1.512    0.990      5.047e-002    0.256    4.650e+003    5.097e+001    
13.000   11.475   4.000       0.727         3.014     1.525    0.990      5.035e-002    0.254    4.486e+003    5.032e+001    
13.000   11.463   4.000       0.726         3.038     1.537    0.990      5.029e-002    0.252    4.304e+003    4.942e+001    
13.000   11.450   4.000       0.725         3.063     1.550    0.990      5.017e-002    0.249    4.213e+003    4.874e+001    
13.000   11.438   4.000       0.724         3.087     1.562    0.989      5.010e-002    0.247    4.121e+003    4.816e+001    
13.000   11.425   4.000       0.724         3.112     1.575    0.989      4.998e-002    0.245    4.011e+003    4.760e+001    
13.000   11.412   4.000       0.723         3.136     1.588    0.989      4.986e-002    0.243    3.888e+003    4.718e+001    
13.000   11.400   4.000       0.722         3.161     1.600    0.989      4.978e-002    0.240    3.822e+003    4.697e+001    
13.000   11.387   4.000       0.721         3.186     1.613    0.989      4.966e-002    0.238    3.888e+003    4.733e+001    
13.000   11.375   4.000       0.720         3.211     1.625    0.989      4.958e-002    0.236    3.843e+003    4.747e+001    
13.000   11.362   4.000       0.720         3.233     1.638    0.989      4.938e-002    0.234    3.730e+003    4.676e+001    
13.000   11.350   4.000       0.719         3.258     1.650    0.988      4.930e-002    0.232    3.757e+003    4.714e+001    
13.000   11.337   4.000       0.718         3.283     1.663    0.988      4.918e-002    0.230    3.742e+003    4.708e+001    
13.000   11.324   4.000       0.717         3.309     1.676    0.988      4.905e-002    0.228    3.744e+003    4.686e+001    
13.000   11.312   4.000       0.716         3.331     1.688    0.988      4.890e-002    0.226    3.700e+003    4.654e+001    
13.000   11.299   4.000       0.716         3.356     1.701    0.988      4.877e-002    0.224    3.769e+003    4.719e+001    
13.000   11.287   4.000       0.715         3.382     1.713    0.988      4.868e-002    0.222    3.694e+003    4.676e+001    
13.000   11.274   4.000       0.714         3.404     1.726    0.988      4.848e-002    0.220    3.569e+003    4.628e+001    
13.000   11.262   4.000       0.713         3.430     1.738    0.987      4.840e-002    0.219    3.666e+003    4.661e+001    
13.000   11.249   4.000       0.712         3.452     1.751    0.987      4.820e-002    0.217    3.646e+003    4.653e+001    
13.000   11.236   4.000       0.712         3.478     1.764    0.987      4.807e-002    0.215    3.689e+003    4.678e+001    
13.000   11.224   4.000       0.711         3.504     1.776    0.987      4.799e-002    0.213    3.723e+003    4.660e+001    
13.000   11.211   4.000       0.710         3.527     1.789    0.987      4.779e-002    0.211    3.667e+003    4.655e+001    
13.000   11.199   4.000       0.709         3.553     1.801    0.987      4.770e-002    0.210    3.696e+003    4.651e+001    
13.000   11.186   4.000       0.708         3.576     1.814    0.986      4.750e-002    0.208    3.679e+003    4.618e+001    
13.000   11.173   4.000       0.708         3.599     1.827    0.986      4.731e-002    0.206    3.719e+003    4.651e+001    
13.000   11.161   4.000       0.707         3.625     1.839    0.986      4.722e-002    0.205    3.685e+003    4.664e+001    
13.000   11.148   4.000       0.706         3.648     1.852    0.986      4.703e-002    0.203    3.610e+003    4.638e+001    
13.000   11.136   4.000       0.705         3.675     1.864    0.986      4.694e-002    0.202    3.641e+003    4.704e+001    
13.000   11.123   4.000       0.704         3.698     1.877    0.986      4.675e-002    0.200    3.620e+003    4.713e+001    
13.000   11.111   4.000       0.704         3.721     1.889    0.985      4.660e-002    0.199    3.558e+003    4.731e+001    
13.000   11.098   4.000       0.703         3.748     1.902    0.985      4.647e-002    0.197    3.556e+003    4.774e+001    
13.000   11.085   4.000       0.702         3.771     1.915    0.985      4.627e-002    0.195    3.602e+003    4.859e+001    
13.000   11.073   4.000       0.701         3.795     1.927    0.985      4.613e-002    0.194    3.431e+003    4.815e+001    
13.000   11.060   4.000       0.700         3.818     1.940    0.985      4.594e-002    0.192    3.499e+003    4.889e+001    
13.000   11.048   4.000       0.700         3.846     1.952    0.985      4.585e-002    0.191    3.415e+003    4.864e+001    
13.000   11.035   4.000       0.699         3.869     1.965    0.984      4.566e-002    0.190    3.376e+003    4.870e+001    
13.000   11.023   4.000       0.698         3.893     1.977    0.984      4.552e-002    0.188    3.396e+003    4.944e+001    
13.000   11.010   4.000       0.697         3.916     1.990    0.984      4.533e-002    0.187    3.317e+003    4.946e+001    
13.000   10.997   4.000       0.696         3.940     2.003    0.984      4.515e-002    0.185    3.305e+003    4.987e+001    
13.000   10.985   4.000       0.696         3.968     2.015    0.984      4.506e-002    0.184    3.310e+003    5.017e+001    
13.000   10.972   4.000       0.695         3.992     2.028    0.983      4.488e-002    0.183    3.297e+003    5.061e+001    
9.993    9.599    4.000       0.467         1.151     0.394    0.997      3.388e-002    0.632    8.609e+002    2.400e+002    
9.993    9.589    4.000       0.467         1.171     0.404    0.997      3.584e-002    0.616    1.688e+003    2.366e+002    
9.993    9.580    4.000       0.466         1.190     0.413    0.997      3.781e-002    0.602    2.046e+003    2.294e+002    
9.993    9.570    4.000       0.466         1.208     0.423    0.997      3.942e-002    0.587    2.480e+003    2.273e+002    
9.993    9.560    4.000       0.465         1.228     0.433    0.997      4.125e-002    0.573    3.600e+003    2.358e+002    
9.993    9.550    4.000       0.465         1.245     0.443    0.997      4.278e-002    0.559    3.866e+003    2.357e+002    
9.993    9.541    4.000       0.465         1.266     0.452    0.997      4.459e-002    0.548    4.964e+003    2.450e+002    
9.993    9.531    4.000       0.464         1.284     0.462    0.996      4.604e-002    0.535    6.665e+003    2.591e+002    
9.993    9.521    4.000       0.464         1.302     0.472    0.996      4.744e-002    0.523    7.264e+003    2.641e+002    
9.993    9.512    4.000       0.463         1.320     0.481    0.996      4.888e-002    0.513    8.873e+003    2.760e+002    
9.993    9.502    4.000       0.463         1.339     0.491    0.996      5.021e-002    0.502    1.124e+004    2.964e+002    
9.993    9.492    4.000       0.462         1.357     0.501    0.996      5.151e-002    0.492    1.296e+004    3.092e+002    
9.993    9.482    4.000       0.462         1.378     0.511    0.996      5.301e-002    0.481    1.512e+004    3.268e+002    
9.993    9.473    4.000       0.461         1.395     0.520    0.996      5.406e-002    0.473    1.855e+004    3.517e+002    
9.993    9.463    4.000       0.461         1.414     0.530    0.996      5.524e-002    0.463    2.086e+004    3.686e+002    
9.993    9.453    4.000       0.460         1.433     0.540    0.996      5.638e-002    0.454    2.289e+004    3.786e+002    
9.993    9.443    4.000       0.460         1.452     0.550    0.996      5.749e-002    0.445    2.419e+004    3.842e+002    
9.993    9.434    4.000       0.459         1.471     0.559    0.996      5.864e-002    0.438    2.490e+004    3.850e+002    
9.993    9.424    4.000       0.459         1.488     0.569    0.996      5.944e-002    0.430    2.450e+004    3.771e+002    
9.993    9.414    4.000       0.458         1.508     0.579    0.996      6.045e-002    0.422    2.259e+004    3.599e+002    
9.993    9.404    4.000       0.458         1.528     0.589    0.996      6.142e-002    0.414    2.139e+004    3.469e+002    
9.993    9.395    4.000       0.457         1.545     0.598    0.996      6.222e-002    0.408    1.939e+004    3.276e+002    
9.993    9.385    4.000       0.457         1.565     0.608    0.996      6.312e-002    0.400    1.867e+004    3.171e+002    
9.993    9.375    4.000       0.456         1.583     0.618    0.996      6.377e-002    0.394    1.658e+004    2.980e+002    
9.993    9.365    4.000       0.456         1.603     0.628    0.995      6.461e-002    0.387    1.503e+004    2.819e+002    
9.993    9.356    4.000       0.455         1.621     0.637    0.995      6.530e-002    0.381    1.399e+004    2.711e+002    
9.993    9.346    4.000       0.455         1.638     0.647    0.995      6.587e-002    0.375    1.275e+004    2.587e+002    
9.993    9.336    4.000       0.455         1.659     0.657    0.995      6.663e-002    0.369    1.245e+004    2.538e+002    
9.993    9.327    4.000       0.454         1.677     0.666    0.995      6.725e-002    0.363    1.104e+004    2.392e+002    
9.993    9.317    4.000       0.454         1.695     0.676    0.995      6.774e-002    0.358    1.032e+004    2.316e+002    
9.993    9.307    4.000       0.453         1.713     0.686    0.995      6.820e-002    0.352    9.750e+003    2.251e+002    
9.993    9.297    4.000       0.453         1.734     0.696    0.995      6.886e-002    0.347    9.681e+003    2.252e+002    
9.993    9.288    4.000       0.452         1.753     0.705    0.995      6.938e-002    0.342    9.206e+003    2.192e+002    
9.993    9.278    4.000       0.452         1.772     0.715    0.995      6.978e-002    0.337    8.545e+003    2.113e+002    
9.993    9.268    4.000       0.451         1.790     0.725    0.995      7.016e-002    0.332    8.289e+003    2.069e+002    
9.993    9.258    4.000       0.451         1.809     0.735    0.995      7.052e-002    0.327    8.174e+003    2.048e+002    
9.993    9.249    4.000       0.450         1.828     0.744    0.995      7.097e-002    0.323    8.041e+003    2.031e+002    
9.993    9.239    4.000       0.450         1.847     0.754    0.995      7.129e-002    0.318    8.368e+003    2.056e+002    
9.993    9.229    4.000       0.449         1.863     0.764    0.994      7.139e-002    0.313    7.755e+003    2.009e+002    
9.993    9.219    4.000       0.449         1.882     0.774    0.994      7.168e-002    0.309    7.781e+003    1.993e+002    
9.993    9.210    4.000       0.448         1.902     0.783    0.994      7.205e-002    0.305    8.167e+003    2.031e+002    
9.993    9.200    4.000       0.448         1.921     0.793    0.994      7.231e-002    0.301    8.056e+003    2.029e+002    
9.993    9.190    4.000       0.447         1.940     0.803    0.994      7.254e-002    0.297    7.793e+003    1.994e+002    
9.993    9.180    4.000       0.447         1.957     0.813    0.994      7.257e-002    0.293    8.188e+003    2.039e+002    
9.993    9.171    4.000       0.446         1.977     0.822    0.994      7.289e-002    0.289    7.729e+003    1.988e+002    
9.993    9.161    4.000       0.446         1.997     0.832    0.994      7.308e-002    0.286    7.966e+003    2.006e+002    
9.993    9.151    4.000       0.446         2.014     0.842    0.994      7.308e-002    0.282    8.731e+003    2.094e+002    
9.993    9.141    4.000       0.445         2.033     0.852    0.994      7.325e-002    0.278    8.415e+003    2.070e+002    
9.993    9.132    4.000       0.445         2.051     0.861    0.994      7.333e-002    0.275    8.634e+003    2.095e+002    
9.993    9.122    4.000       0.444         2.071     0.871    0.993      7.347e-002    0.272    8.819e+003    2.127e+002    
9.993    9.112    4.000       0.444         2.091     0.881    0.993      7.360e-002    0.268    9.158e+003    2.162e+002    
9.993    9.103    4.000       0.443         2.108     0.890    0.993      7.366e-002    0.265    9.389e+003    2.185e+002    
9.993    9.093    4.000       0.443         2.126     0.900    0.993      7.359e-002    0.262    9.548e+003    2.217e+002    
9.993    9.083    4.000       0.442         2.146     0.910    0.993      7.369e-002    0.259    1.028e+004    2.304e+002    
9.993    9.073    4.000       0.442         2.164     0.920    0.993      7.361e-002    0.256    1.072e+004    2.338e+002    
9.993    9.064    4.000       0.441         2.184     0.929    0.993      7.380e-002    0.253    1.113e+004    2.385e+002    
9.993    9.054    4.000       0.441         2.202     0.939    0.993      7.370e-002    0.250    1.173e+004    2.446e+002    
9.993    9.044    4.000       0.440         2.220     0.949    0.993      7.360e-002    0.247    1.302e+004    2.553e+002    
9.993    9.034    4.000       0.440         2.238     0.959    0.993      7.349e-002    0.244    1.274e+004    2.516e+002    
9.993    9.025    4.000       0.439         2.259     0.968    0.992      7.364e-002    0.242    1.202e+004    2.433e+002    
9.993    9.015    4.000       0.439         2.277     0.978    0.992      7.352e-002    0.239    1.242e+004    2.442e+002    
9.993    9.005    4.000       0.438         2.295     0.988    0.992      7.339e-002    0.236    1.191e+004    2.377e+002    
9.993    8.995    4.000       0.438         2.313     0.998    0.992      7.326e-002    0.234    1.200e+004    2.369e+002    
9.993    8.986    4.000       0.437         2.332     1.007    0.992      7.323e-002    0.232    1.150e+004    2.315e+002    
9.993    8.976    4.000       0.437         2.353     1.017    0.992      7.324e-002    0.229    1.123e+004    2.271e+002    
9.993    8.966    4.000       0.437         2.372     1.027    0.992      7.309e-002    0.226    1.091e+004    2.231e+002    
9.993    8.956    4.000       0.436         2.390     1.037    0.992      7.294e-002    0.224    1.016e+004    2.149e+002    
9.993    8.947    4.000       0.436         2.409     1.046    0.992      7.289e-002    0.222    9.520e+003    2.072e+002    
9.993    8.937    4.000       0.435         2.427     1.056    0.991      7.273e-002    0.220    9.165e+003    2.020e+002    
9.993    8.927    4.000       0.435         2.446     1.066    0.991      7.257e-002    0.217    9.334e+003    2.029e+002    
9.993    8.918    4.000       0.434         2.465     1.075    0.991      7.250e-002    0.215    9.058e+003    1.988e+002    
9.993    8.908    4.000       0.434         2.484     1.085    0.991      7.233e-002    0.213    8.854e+003    1.977e+002    
9.993    8.898    4.000       0.433         2.503     1.095    0.991      7.216e-002    0.211    8.617e+003    1.948e+002    
9.993    8.888    4.000       0.433         2.522     1.105    0.991      7.199e-002    0.209    8.363e+003    1.919e+002    
9.993    8.879    4.000       0.432         2.541     1.114    0.991      7.191e-002    0.207    8.070e+003    1.894e+002    
9.993    8.869    4.000       0.432         2.557     1.124    0.991      7.159e-002    0.205    7.937e+003    1.879e+002    
9.993    8.859    4.000       0.431         2.576     1.134    0.990      7.141e-002    0.203    8.446e+003    1.934e+002    
9.993    8.849    4.000       0.431         2.595     1.144    0.990      7.123e-002    0.201    8.559e+003    1.950e+002    
9.993    8.840    4.000       0.430         2.615     1.153    0.990      7.114e-002    0.199    8.543e+003    1.942e+002    
9.993    8.830    4.000       0.430         2.634     1.163    0.990      7.095e-002    0.197    8.108e+003    1.908e+002    
9.993    8.820    4.000       0.429         2.650     1.173    0.990      7.063e-002    0.195    8.093e+003    1.913e+002    
9.993    8.810    4.000       0.429         2.670     1.183    0.990      7.044e-002    0.193    8.917e+003    1.995e+002    
9.993    8.801    4.000       0.428         2.690     1.192    0.990      7.034e-002    0.192    9.070e+003    2.011e+002    
9.993    8.791    4.000       0.428         2.709     1.202    0.989      7.015e-002    0.190    8.865e+003    1.997e+002    
9.993    8.781    4.000       0.428         2.726     1.212    0.989      6.983e-002    0.188    9.418e+003    2.060e+002    
9.993    8.771    4.000       0.427         2.746     1.222    0.989      6.964e-002    0.186    9.494e+003    2.067e+002    
9.993    8.762    4.000       0.427         2.766     1.231    0.989      6.953e-002    0.185    9.590e+003    2.083e+002    
9.993    8.752    4.000       0.426         2.782     1.241    0.989      6.921e-002    0.183    9.769e+003    2.092e+002    
9.993    8.742    4.000       0.426         2.802     1.251    0.989      6.902e-002    0.181    9.482e+003    2.072e+002    
9.993    8.733    4.000       0.425         2.819     1.260    0.989      6.879e-002    0.180    9.965e+003    2.129e+002    
9.993    8.723    4.000       0.425         2.839     1.270    0.988      6.859e-002    0.178    9.209e+003    2.069e+002    
9.993    8.713    4.000       0.424         2.859     1.280    0.988      6.839e-002    0.177    9.541e+003    2.096e+002    
9.993    8.703    4.000       0.424         2.876     1.290    0.988      6.808e-002    0.175    9.469e+003    2.081e+002    
9.993    8.694    4.000       0.423         2.897     1.299    0.988      6.797e-002    0.174    9.346e+003    2.057e+002    
9.993    8.684    4.000       0.423         2.914     1.309    0.988      6.766e-002    0.172    9.222e+003    2.038e+002    
9.993    8.674    4.000       0.422         2.934     1.319    0.988      6.746e-002    0.171    8.688e+003    1.984e+002    
9.993    8.664    4.000       0.422         2.952     1.329    0.988      6.714e-002    0.169    8.778e+003    1.972e+002    
9.993    8.655    4.000       0.421         2.972     1.338    0.987      6.703e-002    0.168    8.336e+003    1.915e+002    
9.993    8.645    4.000       0.421         2.989     1.348    0.987      6.672e-002    0.166    8.172e+003    1.888e+002    
9.993    8.635    4.000       0.420         3.007     1.358    0.987      6.642e-002    0.165    8.086e+003    1.873e+002    
9.993    8.625    4.000       0.420         3.028     1.368    0.987      6.622e-002    0.164    7.943e+003    1.852e+002    
9.993    8.616    4.000       0.419         3.045     1.377    0.987      6.600e-002    0.162    7.595e+003    1.806e+002    
9.993    8.606    4.000       0.419         3.066     1.387    0.987      6.580e-002    0.161    7.221e+003    1.767e+002    
9.993    8.596    4.000       0.418         3.084     1.397    0.986      6.550e-002    0.160    6.913e+003    1.721e+002    
9.993    8.586    4.000       0.418         3.101     1.407    0.986      6.520e-002    0.158    6.885e+003    1.711e+002    
9.993    8.577    4.000       0.418         3.122     1.416    0.986      6.508e-002    0.157    6.653e+003    1.680e+002    
9.993    8.567    4.000       0.417         3.140     1.426    0.986      6.478e-002    0.156    6.723e+003    1.690e+002    
9.993    8.557    4.000       0.417         3.158     1.436    0.986      6.449e-002    0.155    6.741e+003    1.683e+002    
9.993    8.548    4.000       0.416         3.176     1.445    0.986      6.427e-002    0.153    6.464e+003    1.656e+002    
9.993    8.538    4.000       0.416         3.197     1.455    0.985      6.408e-002    0.152    6.685e+003    1.677e+002    
9.993    8.528    4.000       0.415         3.215     1.465    0.985      6.379e-002    0.151    6.705e+003    1.680e+002    
9.993    8.518    4.000       0.415         3.233     1.475    0.985      6.350e-002    0.150    6.320e+003    1.635e+002    
9.993    8.509    4.000       0.414         3.251     1.484    0.985      6.328e-002    0.149    6.285e+003    1.626e+002    
9.993    8.499    4.000       0.414         3.269     1.494    0.985      6.300e-002    0.148    5.877e+003    1.585e+002    
9.993    8.489    4.000       0.413         3.291     1.504    0.984      6.281e-002    0.146    6.475e+003    1.638e+002    
9.993    8.479    4.000       0.413         3.309     1.514    0.984      6.253e-002    0.145    6.029e+003    1.578e+002    
9.993    8.470    4.000       0.412         3.327     1.523    0.984      6.232e-002    0.144    6.080e+003    1.576e+002    
9.993    8.460    4.000       0.412         3.345     1.533    0.984      6.204e-002    0.143    6.211e+003    1.587e+002    
9.993    8.450    4.000       0.411         3.364     1.543    0.984      6.176e-002    0.142    6.027e+003    1.568e+002    
9.993    8.440    4.000       0.411         3.382     1.553    0.984      6.149e-002    0.141    6.227e+003    1.589e+002    
9.993    8.431    4.000       0.410         3.400     1.562    0.983      6.128e-002    0.140    6.191e+003    1.586e+002    
9.993    8.421    4.000       0.410         3.419     1.572    0.983      6.101e-002    0.139    6.303e+003    1.597e+002    
9.993    8.411    4.000       0.409         3.441     1.582    0.983      6.083e-002    0.138    6.136e+003    1.577e+002    
9.993    8.401    4.000       0.409         3.460     1.592    0.983      6.056e-002    0.137    6.197e+003    1.591e+002    
9.993    8.392    4.000       0.409         3.478     1.601    0.983      6.036e-002    0.136    5.981e+003    1.560e+002    
9.993    8.382    4.000       0.408         3.497     1.611    0.982      6.010e-002    0.135    6.080e+003    1.561e+002    
9.993    8.372    4.000       0.408         3.516     1.621    0.982      5.984e-002    0.134    6.101e+003    1.564e+002    
9.993    8.363    4.000       0.407         3.534     1.630    0.982      5.964e-002    0.133    6.361e+003    1.588e+002    
9.993    8.353    4.000       0.407         3.553     1.640    0.982      5.938e-002    0.132    6.123e+003    1.571e+002    
9.993    8.343    4.000       0.406         3.572     1.650    0.982      5.912e-002    0.131    6.037e+003    1.564e+002    
9.993    8.333    4.000       0.406         3.591     1.660    0.981      5.887e-002    0.130    5.940e+003    1.555e+002    
9.993    8.324    4.000       0.405         3.606     1.669    0.981      5.860e-002    0.129    6.075e+003    1.556e+002    
9.993    8.314    4.000       0.405         3.625     1.679    0.981      5.834e-002    0.128    5.944e+003    1.546e+002    
9.993    8.304    4.000       0.404         3.644     1.689    0.981      5.809e-002    0.128    5.637e+003    1.508e+002    
9.993    8.294    4.000       0.404         3.663     1.699    0.981      5.784e-002    0.127    5.889e+003    1.529e+002    
9.993    8.285    4.000       0.403         3.683     1.708    0.980      5.766e-002    0.126    5.783e+003    1.522e+002    
9.993    8.275    4.000       0.403         3.702     1.718    0.980      5.742e-002    0.125    5.962e+003    1.538e+002    
9.993    8.265    4.000       0.402         3.721     1.728    0.980      5.717e-002    0.124    5.781e+003    1.513e+002    
9.993    8.255    4.000       0.402         3.740     1.738    0.980      5.693e-002    0.123    5.740e+003    1.504e+002    
9.993    8.246    4.000       0.401         3.760     1.747    0.979      5.675e-002    0.122    5.570e+003    1.488e+002    
9.993    8.236    4.000       0.401         3.775     1.757    0.979      5.644e-002    0.122    5.462e+003    1.474e+002    
9.993    8.226    4.000       0.400         3.795     1.767    0.979      5.620e-002    0.121    5.745e+003    1.505e+002    
9.993    8.216    4.000       0.400         3.814     1.777    0.979      5.597e-002    0.120    5.630e+003    1.490e+002    
9.993    8.207    4.000       0.400         3.834     1.786    0.979      5.579e-002    0.119    5.485e+003    1.471e+002    
9.993    8.197    4.000       0.399         3.853     1.796    0.978      5.556e-002    0.118    5.595e+003    1.481e+002    
9.993    8.187    4.000       0.399         3.869     1.806    0.978      5.526e-002    0.118    4.962e+003    1.409e+002    
9.993    8.178    4.000       0.398         3.889     1.815    0.978      5.509e-002    0.117    5.302e+003    1.452e+002    
9.993    8.168    4.000       0.398         3.909     1.825    0.978      5.486e-002    0.116    5.355e+003    1.454e+002    
9.993    8.158    4.000       0.397         3.928     1.835    0.977      5.464e-002    0.115    5.380e+003    1.448e+002    
9.993    8.148    4.000       0.397         3.944     1.845    0.977      5.435e-002    0.115    5.266e+003    1.431e+002    
9.993    8.139    4.000       0.396         3.964     1.854    0.977      5.418e-002    0.114    5.157e+003    1.414e+002    
9.993    8.129    4.000       0.396         3.984     1.864    0.977      5.396e-002    0.113    4.958e+003    1.400e+002    
9.993    8.119    4.000       0.395         4.000     1.874    0.976      5.367e-002    0.112    5.068e+003    1.399e+002    
7.000    6.727    4.000       0.229         1.162     0.273    0.997      7.219e-002    0.448    2.033e+003    6.797e+002    
7.000    6.720    4.000       0.229         1.175     0.280    0.997      7.455e-002    0.436    2.666e+003    6.503e+002    
7.000    6.714    4.000       0.229         1.188     0.286    0.997      7.698e-002    0.427    4.085e+003    6.383e+002    
7.000    6.707    4.000       0.229         1.201     0.293    0.997      7.921e-002    0.416    6.440e+003    6.457e+002    
7.000    6.700    4.000       0.228         1.214     0.300    0.997      8.137e-002    0.406    6.887e+003    6.357e+002    
7.000    6.693    4.000       0.228         1.228     0.307    0.997      8.347e-002    0.396    8.011e+003    6.354e+002    
7.000    6.686    4.000       0.228         1.241     0.314    0.997      8.550e-002    0.387    1.040e+004    6.450e+002    
7.000    6.679    4.000       0.228         1.254     0.321    0.996      8.746e-002    0.378    1.280e+004    6.555e+002    
7.000    6.672    4.000       0.228         1.268     0.328    0.996      8.936e-002    0.370    1.441e+004    6.631e+002    
7.000    6.665    4.000       0.227         1.281     0.335    0.996      9.119e-002    0.362    1.587e+004    6.668e+002    
7.000    6.659    4.000       0.227         1.295     0.341    0.996      9.315e-002    0.355    1.857e+004    6.851e+002    
7.000    6.652    4.000       0.227         1.306     0.348    0.996      9.436e-002    0.347    2.162e+004    7.075e+002    
7.000    6.645    4.000       0.227         1.320     0.355    0.996      9.601e-002    0.340    2.254e+004    7.102e+002    
7.000    6.638    4.000       0.226         1.334     0.362    0.996      9.761e-002    0.333    2.749e+004    7.471e+002    
7.000    6.631    4.000       0.226         1.346     0.369    0.996      9.866e-002    0.327    2.957e+004    7.580e+002    
7.000    6.624    4.000       0.226         1.360     0.376    0.996      1.001e-001    0.320    3.482e+004    7.959e+002    
7.000    6.617    4.000       0.226         1.374     0.383    0.996      1.016e-001    0.314    3.936e+004    8.240e+002    
7.000    6.610    4.000       0.225         1.385     0.390    0.996      1.025e-001    0.308    4.480e+004    8.588e+002    
7.000    6.604    4.000       0.225         1.399     0.396    0.996      1.040e-001    0.303    4.858e+004    8.798e+002    
7.000    6.597    4.000       0.225         1.411     0.403    0.996      1.048e-001    0.297    5.268e+004    9.021e+002    
7.000    6.590    4.000       0.225         1.426     0.410    0.996      1.060e-001    0.292    5.675e+004    9.214e+002    
7.000    6.583    4.000       0.225         1.438     0.417    0.996      1.067e-001    0.287    5.940e+004    9.317e+002    
7.000    6.576    4.000       0.224         1.452     0.424    0.996      1.079e-001    0.282    6.436e+004    9.539e+002    
7.000    6.569    4.000       0.224         1.464     0.431    0.996      1.085e-001    0.277    6.640e+004    9.511e+002    
7.000    6.562    4.000       0.224         1.479     0.438    0.995      1.095e-001    0.272    6.550e+004    9.317e+002    
7.000    6.555    4.000       0.224         1.491     0.445    0.995      1.101e-001    0.268    6.551e+004    9.214e+002    
7.000    6.549    4.000       0.223         1.503     0.451    0.995      1.108e-001    0.264    6.334e+004    8.993e+002    
7.000    6.542    4.000       0.223         1.518     0.458    0.995      1.117e-001    0.260    6.097e+004    8.765e+002    
7.000    6.535    4.000       0.223         1.530     0.465    0.995      1.122e-001    0.255    5.534e+004    8.326e+002    
7.000    6.528    4.000       0.223         1.543     0.472    0.995      1.126e-001    0.251    5.296e+004    8.079e+002    
7.000    6.521    4.000       0.222         1.558     0.479    0.995      1.133e-001    0.247    4.884e+004    7.738e+002    
7.000    6.514    4.000       0.222         1.570     0.486    0.995      1.137e-001    0.244    4.784e+004    7.572e+002    
7.000    6.507    4.000       0.222         1.583     0.493    0.995      1.140e-001    0.240    4.278e+004    7.157e+002    
7.000    6.500    4.000       0.222         1.595     0.500    0.995      1.143e-001    0.236    4.021e+004    6.913e+002    
7.000    6.494    4.000       0.221         1.610     0.506    0.995      1.152e-001    0.233    3.852e+004    6.717e+002    
7.000    6.487    4.000       0.221         1.623     0.513    0.995      1.154e-001    0.230    3.668e+004    6.524e+002    
7.000    6.480    4.000       0.221         1.636     0.520    0.995      1.156e-001    0.226    3.231e+004    6.143e+002    
7.000    6.473    4.000       0.221         1.649     0.527    0.995      1.158e-001    0.223    3.142e+004    6.038e+002    
7.000    6.466    4.000       0.221         1.662     0.534    0.994      1.159e-001    0.220    2.934e+004    5.820e+002    
7.000    6.459    4.000       0.220         1.674     0.541    0.994      1.161e-001    0.217    2.713e+004    5.610e+002    
7.000    6.452    4.000       0.220         1.687     0.548    0.994      1.162e-001    0.214    2.595e+004    5.473e+002    
7.000    6.445    4.000       0.220         1.700     0.555    0.994      1.162e-001    0.211    2.428e+004    5.300e+002    
7.000    6.439    4.000       0.220         1.713     0.561    0.994      1.166e-001    0.209    2.397e+004    5.250e+002    
7.000    6.432    4.000       0.219         1.727     0.568    0.994      1.166e-001    0.206    2.308e+004    5.138e+002    
7.000    6.425    4.000       0.219         1.740     0.575    0.994      1.166e-001    0.203    2.154e+004    4.990e+002    
7.000    6.418    4.000       0.219         1.753     0.582    0.994      1.166e-001    0.200    2.079e+004    4.906e+002    
7.000    6.411    4.000       0.219         1.766     0.589    0.994      1.166e-001    0.198    2.013e+004    4.815e+002    
7.000    6.404    4.000       0.218         1.780     0.596    0.994      1.166e-001    0.195    1.903e+004    4.704e+002    
7.000    6.397    4.000       0.218         1.793     0.603    0.994      1.166e-001    0.193    1.904e+004    4.682e+002    
7.000    6.390    4.000       0.218         1.806     0.610    0.993      1.165e-001    0.190    1.806e+004    4.584e+002    
7.000    6.384    4.000       0.218         1.820     0.616    0.993      1.167e-001    0.188    1.871e+004    4.614e+002    
7.000    6.377    4.000       0.217         1.833     0.623    0.993      1.166e-001    0.186    1.680e+004    4.439e+002    
7.000    6.370    4.000       0.217         1.847     0.630    0.993      1.165e-001    0.184    1.695e+004    4.434e+002    
7.000    6.363    4.000       0.217         1.858     0.637    0.993      1.161e-001    0.182    1.699e+004    4.431e+002    
7.000    6.356    4.000       0.217         1.871     0.644    0.993      1.159e-001    0.179    1.767e+004    4.483e+002    
7.000    6.349    4.000       0.217         1.885     0.651    0.993      1.158e-001    0.177    1.672e+004    4.386e+002    
7.000    6.342    4.000       0.216         1.899     0.658    0.993      1.157e-001    0.175    1.661e+004    4.369e+002    
7.000    6.335    4.000       0.216         1.913     0.665    0.993      1.155e-001    0.173    1.660e+004    4.364e+002    
7.000    6.329    4.000       0.216         1.924     0.671    0.993      1.153e-001    0.171    1.663e+004    4.378e+002    
7.000    6.322    4.000       0.216         1.938     0.678    0.992      1.151e-001    0.169    1.705e+004    4.391e+002    
7.000    6.315    4.000       0.215         1.952     0.685    0.992      1.149e-001    0.168    1.699e+004    4.383e+002    
7.000    6.308    4.000       0.215         1.963     0.692    0.992      1.144e-001    0.166    1.618e+004    4.300e+002    
7.000    6.301    4.000       0.215         1.977     0.699    0.992      1.143e-001    0.164    1.695e+004    4.382e+002    
7.000    6.294    4.000       0.215         1.991     0.706    0.992      1.141e-001    0.162    1.695e+004    4.383e+002    
7.000    6.287    4.000       0.214         2.002     0.713    0.992      1.136e-001    0.160    1.646e+004    4.337e+002    
7.000    6.280    4.000       0.214         2.016     0.720    0.992      1.133e-001    0.159    1.754e+004    4.456e+002    
7.000    6.274    4.000       0.214         2.031     0.726    0.992      1.133e-001    0.157    1.730e+004    4.431e+002    
7.000    6.267    4.000       0.214         2.042     0.733    0.992      1.128e-001    0.155    1.776e+004    4.499e+002    
7.000    6.260    4.000       0.213         2.056     0.740    0.991      1.126e-001    0.154    1.829e+004    4.556e+002    
7.000    6.253    4.000       0.213         2.068     0.747    0.991      1.121e-001    0.152    1.808e+004    4.569e+002    
7.000    6.246    4.000       0.213         2.082     0.754    0.991      1.119e-001    0.151    1.885e+004    4.619e+002    
7.000    6.239    4.000       0.213         2.097     0.761    0.991      1.116e-001    0.149    1.889e+004    4.640e+002    
7.000    6.232    4.000       0.213         2.108     0.768    0.991      1.111e-001    0.147    1.959e+004    4.710e+002    
7.000    6.225    4.000       0.212         2.123     0.775    0.991      1.108e-001    0.146    1.943e+004    4.722e+002    
7.000    6.219    4.000       0.212         2.135     0.781    0.991      1.105e-001    0.145    1.964e+004    4.741e+002    
7.000    6.212    4.000       0.212         2.149     0.788    0.991      1.103e-001    0.143    2.061e+004    4.834e+002    
7.000    6.205    4.000       0.212         2.161     0.795    0.990      1.098e-001    0.142    2.122e+004    4.909e+002    
7.000    6.198    4.000       0.211         2.176     0.802    0.990      1.095e-001    0.140    2.052e+004    4.867e+002    
7.000    6.191    4.000       0.211         2.187     0.809    0.990      1.090e-001    0.139    2.236e+004    5.070e+002    
7.000    6.184    4.000       0.211         2.199     0.816    0.990      1.085e-001    0.138    2.241e+004    5.065e+002    
7.000    6.177    4.000       0.211         2.214     0.823    0.990      1.082e-001    0.136    2.415e+004    5.212e+002    
7.000    6.170    4.000       0.210         2.226     0.830    0.990      1.077e-001    0.135    2.396e+004    5.188e+002    
7.000    6.164    4.000       0.210         2.241     0.836    0.990      1.076e-001    0.134    2.423e+004    5.210e+002    
7.000    6.157    4.000       0.210         2.253     0.843    0.989      1.071e-001    0.133    2.428e+004    5.205e+002    
7.000    6.150    4.000       0.210         2.265     0.850    0.989      1.066e-001    0.131    2.508e+004    5.261e+002    
7.000    6.143    4.000       0.209         2.280     0.857    0.989      1.063e-001    0.130    2.368e+004    5.115e+002    
7.000    6.136    4.000       0.209         2.292     0.864    0.989      1.058e-001    0.129    2.335e+004    5.074e+002    
7.000    6.129    4.000       0.209         2.304     0.871    0.989      1.053e-001    0.128    2.283e+004    5.029e+002    
7.000    6.122    4.000       0.209         2.320     0.878    0.989      1.050e-001    0.127    2.299e+004    4.984e+002    
7.000    6.115    4.000       0.209         2.332     0.885    0.989      1.045e-001    0.126    2.127e+004    4.793e+002    
7.000    6.109    4.000       0.208         2.344     0.891    0.988      1.042e-001    0.125    2.220e+004    4.844e+002    
7.000    6.102    4.000       0.208         2.359     0.898    0.988      1.039e-001    0.123    2.024e+004    4.648e+002    
7.000    6.095    4.000       0.208         2.372     0.905    0.988      1.034e-001    0.122    1.981e+004    4.570e+002    
7.000    6.088    4.000       0.208         2.384     0.912    0.988      1.029e-001    0.121    1.915e+004    4.476e+002    
7.000    6.081    4.000       0.207         2.396     0.919    0.988      1.024e-001    0.120    1.864e+004    4.403e+002    
7.000    6.074    4.000       0.207         2.412     0.926    0.988      1.021e-001    0.119    1.885e+004    4.425e+002    
7.000    6.067    4.000       0.207         2.424     0.933    0.987      1.016e-001    0.118    1.814e+004    4.315e+002    
7.000    6.060    4.000       0.207         2.437     0.940    0.987      1.011e-001    0.117    1.757e+004    4.246e+002    
7.000    6.054    4.000       0.206         2.449     0.946    0.987      1.008e-001    0.116    1.722e+004    4.195e+002    
7.000    6.047    4.000       0.206         2.462     0.953    0.987      1.003e-001    0.115    1.701e+004    4.156e+002    
7.000    6.040    4.000       0.206         2.477     0.960    0.987      1.001e-001    0.114    1.600e+004    4.053e+002    
7.000    6.033    4.000       0.206         2.490     0.967    0.987      9.958e-002    0.113    1.643e+004    4.080e+002    
7.000    6.026    4.000       0.206         2.503     0.974    0.986      9.910e-002    0.112    1.628e+004    4.086e+002    
7.000    6.019    4.000       0.205         2.515     0.981    0.986      9.863e-002    0.112    1.548e+004    3.986e+002    
7.000    6.012    4.000       0.205         2.528     0.988    0.986      9.816e-002    0.111    1.556e+004    3.987e+002    
7.000    6.005    4.000       0.205         2.541     0.995    0.986      9.769e-002    0.110    1.475e+004    3.914e+002    
7.000    5.999    4.000       0.205         2.554     1.001    0.986      9.740e-002    0.109    1.571e+004    3.999e+002    
7.000    5.992    4.000       0.204         2.570     1.008    0.986      9.712e-002    0.108    1.483e+004    3.925e+002    
7.000    5.985    4.000       0.204         2.582     1.015    0.985      9.666e-002    0.107    1.489e+004    3.927e+002    
7.000    5.978    4.000       0.204         2.595     1.022    0.985      9.620e-002    0.106    1.503e+004    3.966e+002    
7.000    5.971    4.000       0.204         2.608     1.029    0.985      9.575e-002    0.105    1.533e+004    3.985e+002    
7.000    5.964    4.000       0.203         2.621     1.036    0.985      9.530e-002    0.105    1.479e+004    3.935e+002    
7.000    5.957    4.000       0.203         2.634     1.043    0.985      9.485e-002    0.104    1.550e+004    4.015e+002    
7.000    5.950    4.000       0.203         2.647     1.050    0.985      9.440e-002    0.103    1.603e+004    4.075e+002    
7.000    5.944    4.000       0.203         2.660     1.056    0.984      9.412e-002    0.102    1.553e+004    4.043e+002    
7.000    5.937    4.000       0.202         2.673     1.063    0.984      9.368e-002    0.101    1.478e+004    3.978e+002    
7.000    5.930    4.000       0.202         2.686     1.070    0.984      9.324e-002    0.101    1.556e+004    4.078e+002    
7.000    5.923    4.000       0.202         2.699     1.077    0.984      9.281e-002    0.100    1.532e+004    4.036e+002    
7.000    5.916    4.000       0.202         2.713     1.084    0.984      9.238e-002    0.099    1.573e+004    4.096e+002    
7.000    5.909    4.000       0.202         2.726     1.091    0.983      9.195e-002    0.098    1.618e+004    4.135e+002    
7.000    5.902    4.000       0.201         2.739     1.098    0.983      9.153e-002    0.098    1.582e+004    4.106e+002    
7.000    5.895    4.000       0.201         2.752     1.105    0.983      9.111e-002    0.097    1.695e+004    4.217e+002    
7.000    5.889    4.000       0.201         2.766     1.111    0.983      9.084e-002    0.096    1.651e+004    4.193e+002    
7.000    5.882    4.000       0.201         2.779     1.118    0.983      9.042e-002    0.096    1.641e+004    4.167e+002    
7.000    5.875    4.000       0.200         2.792     1.125    0.982      9.001e-002    0.095    1.638e+004    4.156e+002    
7.000    5.868    4.000       0.200         2.806     1.132    0.982      8.960e-002    0.094    1.616e+004    4.128e+002    
7.000    5.861    4.000       0.200         2.819     1.139    0.982      8.919e-002    0.094    1.566e+004    4.068e+002    
7.000    5.854    4.000       0.200         2.832     1.146    0.982      8.879e-002    0.093    1.637e+004    4.138e+002    
7.000    5.847    4.000       0.199         2.843     1.153    0.982      8.824e-002    0.092    1.587e+004    4.088e+002    
7.000    5.840    4.000       0.199         2.856     1.160    0.981      8.784e-002    0.091    1.604e+004    4.070e+002    
7.000    5.834    4.000       0.199         2.870     1.166    0.981      8.759e-002    0.091    1.526e+004    3.972e+002    
7.000    5.827    4.000       0.199         2.883     1.173    0.981      8.720e-002    0.090    1.434e+004    3.860e+002    
7.000    5.820    4.000       0.198         2.897     1.180    0.981      8.681e-002    0.090    1.526e+004    3.954e+002    
7.000    5.813    4.000       0.198         2.910     1.187    0.981      8.642e-002    0.089    1.480e+004    3.896e+002    
7.000    5.806    4.000       0.198         2.924     1.194    0.980      8.604e-002    0.088    1.491e+004    3.877e+002    
7.000    5.799    4.000       0.198         2.934     1.201    0.980      8.551e-002    0.088    1.383e+004    3.738e+002    
7.000    5.792    4.000       0.198         2.948     1.208    0.980      8.514e-002    0.087    1.370e+004    3.703e+002    
7.000    5.785    4.000       0.197         2.962     1.215    0.980      8.476e-002    0.087    1.314e+004    3.632e+002    
7.000    5.779    4.000       0.197         2.976     1.221    0.980      8.453e-002    0.086    1.299e+004    3.618e+002    
7.000    5.772    4.000       0.197         2.989     1.228    0.979      8.416e-002    0.085    1.296e+004    3.576e+002    
7.000    5.765    4.000       0.197         3.003     1.235    0.979      8.379e-002    0.085    1.298e+004    3.560e+002    
7.000    5.758    4.000       0.196         3.014     1.242    0.979      8.329e-002    0.084    1.172e+004    3.410e+002    
7.000    5.751    4.000       0.196         3.028     1.249    0.979      8.293e-002    0.084    1.243e+004    3.466e+002    
7.000    5.744    4.000       0.196         3.042     1.256    0.978      8.258e-002    0.083    1.218e+004    3.435e+002    
7.000    5.737    4.000       0.196         3.056     1.263    0.978      8.222e-002    0.083    1.158e+004    3.379e+002    
7.000    5.730    4.000       0.195         3.066     1.270    0.978      8.174e-002    0.082    1.090e+004    3.268e+002    
7.000    5.724    4.000       0.195         3.080     1.276    0.978      8.151e-002    0.082    1.080e+004    3.249e+002    
7.000    5.717    4.000       0.195         3.094     1.283    0.977      8.117e-002    0.081    1.083e+004    3.236e+002    
7.000    5.710    4.000       0.195         3.108     1.290    0.977      8.082e-002    0.080    1.095e+004    3.249e+002    
7.000    5.703    4.000       0.194         3.119     1.297    0.977      8.036e-002    0.080    1.040e+004    3.192e+002    
7.000    5.696    4.000       0.194         3.133     1.304    0.977      8.002e-002    0.079    1.014e+004    3.143e+002    
7.000    5.689    4.000       0.194         3.147     1.311    0.977      7.968e-002    0.079    1.058e+004    3.184e+002    
7.000    5.682    4.000       0.194         3.158     1.318    0.976      7.923e-002    0.078    1.013e+004    3.137e+002    
7.000    5.675    4.000       0.194         3.172     1.325    0.976      7.890e-002    0.078    1.002e+004    3.136e+002    
7.000    5.669    4.000       0.193         3.186     1.331    0.976      7.869e-002    0.077    1.003e+004    3.107e+002    
7.000    5.662    4.000       0.193         3.201     1.338    0.976      7.836e-002    0.077    1.039e+004    3.138e+002    
7.000    5.655    4.000       0.193         3.211     1.345    0.975      7.792e-002    0.076    1.005e+004    3.103e+002    
7.000    5.648    4.000       0.193         3.226     1.352    0.975      7.760e-002    0.076    9.900e+003    3.089e+002    
7.000    5.641    4.000       0.192         3.236     1.359    0.975      7.717e-002    0.075    1.028e+004    3.139e+002    
7.000    5.634    4.000       0.192         3.251     1.366    0.975      7.685e-002    0.075    9.687e+003    3.058e+002    
7.000    5.627    4.000       0.192         3.265     1.373    0.974      7.654e-002    0.074    9.708e+003    3.058e+002    
7.000    5.620    4.000       0.192         3.276     1.380    0.974      7.612e-002    0.074    1.006e+004    3.100e+002    
7.000    5.614    4.000       0.191         3.291     1.386    0.974      7.592e-002    0.074    9.354e+003    3.019e+002    
7.000    5.607    4.000       0.191         3.305     1.393    0.974      7.561e-002    0.073    9.141e+003    3.002e+002    
7.000    5.600    4.000       0.191         3.316     1.400    0.973      7.520e-002    0.073    9.617e+003    3.049e+002    
7.000    5.593    4.000       0.191         3.331     1.407    0.973      7.490e-002    0.072    9.486e+003    3.032e+002    
7.000    5.586    4.000       0.191         3.342     1.414    0.973      7.449e-002    0.072    9.617e+003    3.044e+002    
7.000    5.579    4.000       0.190         3.356     1.421    0.972      7.420e-002    0.071    9.806e+003    3.088e+002    
7.000    5.572    4.000       0.190         3.371     1.428    0.972      7.391e-002    0.071    9.539e+003    3.033e+002    
7.000    5.565    4.000       0.190         3.382     1.435    0.972      7.351e-002    0.070    9.123e+003    2.975e+002    
7.000    5.559    4.000       0.190         3.397     1.441    0.972      7.332e-002    0.070    9.491e+003    3.022e+002    
7.000    5.552    4.000       0.189         3.408     1.448    0.971      7.293e-002    0.070    9.379e+003    3.022e+002    
7.000    5.545    4.000       0.189         3.423     1.455    0.971      7.265e-002    0.069    9.081e+003    2.975e+002    
7.000    5.538    4.000       0.189         3.434     1.462    0.971      7.226e-002    0.069    9.035e+003    2.968e+002    
7.000    5.531    4.000       0.189         3.448     1.469    0.971      7.198e-002    0.068    9.983e+003    3.079e+002    
7.000    5.524    4.000       0.188         3.463     1.476    0.970      7.171e-002    0.068    9.302e+003    3.005e+002    
7.000    5.517    4.000       0.188         3.474     1.483    0.970      7.133e-002    0.068    8.608e+003    2.903e+002    
7.000    5.510    4.000       0.188         3.489     1.490    0.970      7.106e-002    0.067    8.927e+003    2.940e+002    
7.000    5.504    4.000       0.188         3.501     1.496    0.969      7.078e-002    0.067    9.389e+003    2.997e+002    
7.000    5.497    4.000       0.187         3.516     1.503    0.969      7.052e-002    0.066    9.122e+003    2.979e+002    
7.000    5.490    4.000       0.187         3.527     1.510    0.969      7.015e-002    0.066    9.211e+003    2.974e+002    
7.000    5.483    4.000       0.187         3.542     1.517    0.969      6.989e-002    0.066    8.803e+003    2.912e+002    
7.000    5.476    4.000       0.187         3.553     1.524    0.968      6.953e-002    0.065    8.767e+003    2.911e+002    
7.000    5.469    4.000       0.187         3.568     1.531    0.968      6.927e-002    0.065    8.574e+003    2.887e+002    
7.000    5.462    4.000       0.186         3.580     1.538    0.968      6.892e-002    0.065    9.054e+003    2.948e+002    
7.000    5.455    4.000       0.186         3.591     1.545    0.967      6.857e-002    0.064    8.887e+003    2.913e+002    
7.000    5.449    4.000       0.186         3.606     1.551    0.967      6.840e-002    0.064    8.866e+003    2.910e+002    
7.000    5.442    4.000       0.186         3.618     1.558    0.967      6.806e-002    0.063    8.859e+003    2.920e+002    
7.000    5.435    4.000       0.185         3.633     1.565    0.966      6.781e-002    0.063    8.549e+003    2.867e+002    
7.000    5.428    4.000       0.185         3.644     1.572    0.966      6.747e-002    0.063    8.386e+003    2.850e+002    
7.000    5.421    4.000       0.185         3.660     1.579    0.966      6.722e-002    0.062    8.772e+003    2.893e+002    
7.000    5.414    4.000       0.185         3.671     1.586    0.966      6.689e-002    0.062    8.254e+003    2.842e+002    
7.000    5.407    4.000       0.184         3.686     1.593    0.965      6.665e-002    0.062    8.266e+003    2.814e+002    
7.000    5.400    4.000       0.184         3.698     1.600    0.965      6.632e-002    0.061    8.607e+003    2.860e+002    
7.000    5.394    4.000       0.184         3.709     1.606    0.965      6.608e-002    0.061    8.048e+003    2.785e+002    
7.000    5.387    4.000       0.184         3.725     1.613    0.964      6.584e-002    0.061    8.099e+003    2.785e+002    
7.000    5.380    4.000       0.183         3.736     1.620    0.964      6.552e-002    0.060    7.915e+003    2.764e+002    
7.000    5.373    4.000       0.183         3.752     1.627    0.964      6.529e-002    0.060    7.985e+003    2.765e+002    
7.000    5.366    4.000       0.183         3.764     1.634    0.963      6.497e-002    0.060    8.177e+003    2.793e+002    
7.000    5.359    4.000       0.183         3.775     1.641    0.963      6.466e-002    0.059    8.392e+003    2.815e+002    
7.000    5.352    4.000       0.183         3.791     1.648    0.963      6.443e-002    0.059    8.316e+003    2.806e+002    
7.000    5.345    4.000       0.182         3.803     1.655    0.962      6.412e-002    0.059    8.298e+003    2.806e+002    
7.000    5.339    4.000       0.182         3.814     1.661    0.962      6.389e-002    0.058    8.349e+003    2.821e+002    
7.000    5.332    4.000       0.182         3.830     1.668    0.962      6.367e-002    0.058    8.079e+003    2.762e+002    
7.000    5.325    4.000       0.182         3.842     1.675    0.961      6.337e-002    0.058    8.350e+003    2.790e+002    
7.000    5.318    4.000       0.181         3.857     1.682    0.961      6.315e-002    0.057    7.919e+003    2.752e+002    
7.000    5.311    4.000       0.181         3.869     1.689    0.961      6.285e-002    0.057    7.596e+003    2.693e+002    
7.000    5.304    4.000       0.181         3.881     1.696    0.960      6.256e-002    0.057    7.956e+003    2.734e+002    
7.000    5.297    4.000       0.181         3.897     1.703    0.960      6.235e-002    0.057    8.075e+003    2.753e+002    
7.000    5.290    4.000       0.180         3.909     1.710    0.960      6.205e-002    0.056    7.641e+003    2.689e+002    
7.000    5.284    4.000       0.180         3.920     1.716    0.959      6.184e-002    0.056    7.756e+003    2.697e+002    
7.000    5.277    4.000       0.180         3.936     1.723    0.959      6.163e-002    0.056    7.258e+003    2.630e+002    
7.000    5.270    4.000       0.180         3.948     1.730    0.959      6.135e-002    0.055    7.337e+003    2.643e+002    
7.000    5.263    4.000       0.179         3.960     1.737    0.958      6.107e-002    0.055    7.467e+003    2.648e+002    
7.000    5.256    4.000       0.179         3.972     1.744    0.958      6.078e-002    0.055    7.046e+003    2.591e+002    
7.000    5.249    4.000       0.179         3.988     1.751    0.958      6.058e-002    0.054    7.111e+003    2.602e+002    
7.000    5.242    4.000       0.179         4.000     1.758    0.957      6.031e-002    0.054    7.243e+003    2.626e+002    
4.499    4.300    4.000       0.094         1.160     0.199    0.997      1.618e-001    0.252    7.371e+003    2.717e+003    
4.499    4.291    4.000       0.094         1.175     0.208    0.996      1.659e-001    0.241    1.232e+004    2.554e+003    
4.499    4.284    4.000       0.094         1.188     0.215    0.996      1.695e-001    0.233    1.208e+004    3.484e+003    
4.499    4.280    4.000       0.094         1.197     0.219    0.996      1.722e-001    0.228    1.376e+004    3.477e+003    
4.499    4.276    4.000       0.094         1.206     0.223    0.996      1.747e-001    0.224    1.999e+004    3.474e+003    
4.499    4.271    4.000       0.094         1.214     0.228    0.996      1.766e-001    0.219    1.891e+004    3.456e+003    
4.499    4.267    4.000       0.094         1.223     0.232    0.996      1.790e-001    0.215    2.190e+004    3.435e+003    
4.499    4.262    4.000       0.093         1.230     0.237    0.996      1.795e-001    0.210    2.756e+004    3.537e+003    
4.499    4.258    4.000       0.093         1.239     0.241    0.996      1.817e-001    0.206    2.869e+004    3.482e+003    
4.499    4.253    4.000       0.093         1.248     0.246    0.996      1.832e-001    0.202    3.164e+004    3.604e+003    
4.499    4.249    4.000       0.093         1.257     0.250    0.996      1.852e-001    0.199    3.256e+004    3.513e+003    
4.499    4.244    4.000       0.093         1.263     0.255    0.996      1.854e-001    0.194    3.775e+004    3.686e+003    
4.499    4.240    4.000       0.093         1.272     0.259    0.996      1.873e-001    0.191    3.683e+004    3.633e+003    
4.499    4.236    4.000       0.093         1.281     0.263    0.996      1.891e-001    0.188    4.217e+004    3.740e+003    
4.499    4.231    4.000       0.093         1.290     0.268    0.996      1.902e-001    0.184    4.131e+004    3.669e+003    
4.499    4.227    4.000       0.093         1.297     0.272    0.996      1.908e-001    0.182    4.460e+004    3.805e+003    
4.499    4.222    4.000       0.093         1.306     0.277    0.996      1.917e-001    0.178    5.270e+004    3.858e+003    
4.499    4.218    4.000       0.092         1.316     0.281    0.995      1.932e-001    0.175    5.297e+004    3.964e+003    
4.499    4.213    4.000       0.092         1.322     0.286    0.995      1.930e-001    0.172    5.483e+004    3.951e+003    
4.499    4.209    4.000       0.092         1.332     0.290    0.995      1.943e-001    0.170    6.160e+004    4.151e+003    
4.499    4.204    4.000       0.092         1.341     0.295    0.995      1.950e-001    0.166    6.764e+004    4.147e+003    
4.499    4.200    4.000       0.092         1.348     0.299    0.995      1.953e-001    0.164    7.552e+004    4.365e+003    
4.499    4.196    4.000       0.092         1.357     0.303    0.995      1.965e-001    0.162    8.019e+004    4.432e+003    
4.499    4.191    4.000       0.092         1.367     0.308    0.995      1.969e-001    0.159    7.911e+004    4.484e+003    
4.499    4.187    4.000       0.092         1.374     0.312    0.995      1.971e-001    0.157    9.583e+004    4.549e+003    
4.499    4.182    4.000       0.092         1.383     0.317    0.995      1.974e-001    0.154    9.493e+004    4.433e+003    
4.499    4.178    4.000       0.092         1.390     0.321    0.995      1.975e-001    0.152    9.668e+004    4.382e+003    
4.499    4.173    4.000       0.091         1.399     0.326    0.995      1.978e-001    0.150    1.072e+005    4.460e+003    
4.499    4.169    4.000       0.091         1.409     0.330    0.995      1.986e-001    0.148    1.079e+005    4.529e+003    
4.499    4.164    4.000       0.091         1.416     0.335    0.995      1.979e-001    0.145    1.186e+005    4.584e+003    
4.499    4.160    4.000       0.091         1.426     0.339    0.995      1.987e-001    0.143    1.247e+005    4.706e+003    
4.499    4.155    4.000       0.091         1.433     0.344    0.994      1.979e-001    0.141    1.236e+005    4.606e+003    
4.499    4.151    4.000       0.091         1.442     0.348    0.994      1.987e-001    0.139    1.244e+005    4.668e+003    
4.499    4.147    4.000       0.091         1.450     0.352    0.994      1.985e-001    0.138    1.267e+005    4.624e+003    
4.499    4.142    4.000       0.091         1.459     0.357    0.994      1.985e-001    0.136    1.307e+005    4.698e+003    
4.499    4.138    4.000       0.091         1.467     0.361    0.994      1.982e-001    0.134    1.354e+005    4.685e+003    
4.499    4.133    4.000       0.091         1.476     0.366    0.994      1.981e-001    0.132    1.287e+005    4.636e+003    
4.499    4.129    4.000       0.091         1.484     0.370    0.994      1.979e-001    0.130    1.277e+005    4.573e+003    
4.499    4.124    4.000       0.090         1.493     0.375    0.994      1.977e-001    0.128    1.254e+005    4.444e+003    
4.499    4.120    4.000       0.090         1.501     0.379    0.994      1.974e-001    0.127    1.195e+005    4.383e+003    
4.499    4.115    4.000       0.090         1.510     0.384    0.994      1.972e-001    0.125    1.233e+005    4.353e+003    
4.499    4.111    4.000       0.090         1.518     0.388    0.994      1.968e-001    0.124    1.141e+005    4.257e+003    
4.499    4.107    4.000       0.090         1.525     0.392    0.993      1.965e-001    0.122    1.051e+005    4.018e+003    
4.499    4.102    4.000       0.090         1.535     0.397    0.993      1.962e-001    0.121    1.128e+005    4.158e+003    
4.499    4.098    4.000       0.090         1.543     0.401    0.993      1.958e-001    0.119    9.315e+004    3.793e+003    
4.499    4.093    4.000       0.090         1.553     0.406    0.993      1.954e-001    0.118    1.019e+005    3.933e+003    
4.499    4.089    4.000       0.090         1.560     0.410    0.993      1.950e-001    0.116    8.617e+004    3.623e+003    
4.499    4.084    4.000       0.090         1.568     0.415    0.993      1.939e-001    0.115    8.572e+004    3.640e+003    
4.499    4.080    4.000       0.089         1.578     0.419    0.993      1.941e-001    0.114    7.438e+004    3.404e+003    
4.499    4.075    4.000       0.089         1.585     0.424    0.993      1.930e-001    0.112    7.569e+004    3.433e+003    
4.499    4.071    4.000       0.089         1.593     0.428    0.993      1.926e-001    0.111    7.186e+004    3.342e+003    
4.499    4.067    4.000       0.089         1.603     0.432    0.993      1.928e-001    0.110    6.345e+004    3.138e+003    
4.499    4.062    4.000       0.089         1.610     0.437    0.992      1.916e-001    0.109    6.125e+004    3.115e+003    
4.499    4.058    4.000       0.089         1.618     0.441    0.992      1.911e-001    0.107    5.916e+004    3.027e+003    
4.499    4.053    4.000       0.089         1.628     0.446    0.992      1.906e-001    0.106    5.586e+004    2.982e+003    
4.499    4.049    4.000       0.089         1.636     0.450    0.992      1.901e-001    0.105    5.803e+004    2.948e+003    
4.499    4.044    4.000       0.089         1.644     0.455    0.992      1.890e-001    0.104    5.387e+004    2.901e+003    
4.499    4.040    4.000       0.089         1.654     0.459    0.992      1.891e-001    0.103    5.093e+004    2.797e+003    
4.499    4.035    4.000       0.088         1.662     0.464    0.992      1.879e-001    0.102    5.292e+004    2.830e+003    
4.499    4.031    4.000       0.088         1.669     0.468    0.992      1.874e-001    0.101    5.292e+004    2.810e+003    
4.499    4.027    4.000       0.088         1.677     0.472    0.991      1.868e-001    0.100    4.548e+004    2.635e+003    
4.499    4.022    4.000       0.088         1.687     0.477    0.991      1.863e-001    0.098    4.165e+004    2.577e+003    
4.499    4.018    4.000       0.088         1.695     0.481    0.991      1.857e-001    0.098    3.973e+004    2.510e+003    
4.499    4.013    4.000       0.088         1.703     0.486    0.991      1.845e-001    0.096    3.912e+004    2.502e+003    
4.499    4.009    4.000       0.088         1.711     0.490    0.991      1.840e-001    0.096    3.879e+004    2.452e+003    
4.499    4.004    4.000       0.088         1.721     0.495    0.991      1.834e-001    0.094    3.460e+004    2.391e+003    
4.499    4.000    4.000       0.088         1.729     0.499    0.991      1.828e-001    0.094    3.681e+004    2.391e+003    
4.499    3.995    4.000       0.088         1.737     0.504    0.991      1.817e-001    0.093    3.446e+004    2.367e+003    
4.499    3.991    4.000       0.087         1.745     0.508    0.990      1.811e-001    0.092    3.217e+004    2.303e+003    
4.499    3.987    4.000       0.087         1.753     0.512    0.990      1.805e-001    0.091    3.236e+004    2.248e+003    
4.499    3.982    4.000       0.087         1.764     0.517    0.990      1.799e-001    0.090    3.106e+004    2.249e+003    
4.499    3.978    4.000       0.087         1.772     0.521    0.990      1.793e-001    0.089    3.503e+004    2.247e+003    
4.499    3.973    4.000       0.087         1.780     0.526    0.990      1.782e-001    0.088    3.461e+004    2.242e+003    
4.499    3.969    4.000       0.087         1.788     0.530    0.990      1.776e-001    0.087    3.106e+004    2.082e+003    
4.499    3.964    4.000       0.087         1.796     0.535    0.990      1.764e-001    0.087    2.934e+004    2.053e+003    
4.499    3.960    4.000       0.087         1.804     0.539    0.990      1.759e-001    0.086    3.145e+004    2.017e+003    
4.499    3.955    4.000       0.087         1.814     0.544    0.989      1.752e-001    0.085    2.782e+004    1.964e+003    
4.499    3.951    4.000       0.087         1.823     0.548    0.989      1.746e-001    0.084    2.572e+004    1.870e+003    
4.499    3.946    4.000       0.086         1.831     0.553    0.989      1.735e-001    0.083    2.440e+004    1.795e+003    
4.499    3.942    4.000       0.086         1.839     0.557    0.989      1.730e-001    0.083    2.880e+004    1.873e+003    
4.499    3.938    4.000       0.086         1.847     0.561    0.989      1.724e-001    0.082    2.944e+004    1.830e+003    
4.499    3.933    4.000       0.086         1.855     0.566    0.989      1.713e-001    0.081    2.953e+004    1.814e+003    
4.499    3.929    4.000       0.086         1.863     0.570    0.988      1.707e-001    0.081    2.610e+004    1.714e+003    
4.499    3.924    4.000       0.086         1.871     0.575    0.988      1.696e-001    0.080    2.896e+004    1.757e+003    
4.499    3.920    4.000       0.086         1.880     0.579    0.988      1.690e-001    0.079    2.973e+004    1.731e+003    
4.499    3.915    4.000       0.086         1.888     0.584    0.988      1.679e-001    0.078    2.770e+004    1.667e+003    
4.499    3.911    4.000       0.086         1.899     0.588    0.988      1.678e-001    0.078    2.935e+004    1.682e+003    
4.499    3.906    4.000       0.086         1.907     0.593    0.988      1.668e-001    0.077    2.748e+004    1.638e+003    
4.499    3.902    4.000       0.086         1.915     0.597    0.988      1.662e-001    0.076    2.665e+004    1.601e+003    
4.499    3.898    4.000       0.085         1.924     0.601    0.987      1.656e-001    0.076    2.613e+004    1.581e+003    
4.499    3.893    4.000       0.085         1.932     0.606    0.987      1.646e-001    0.075    2.450e+004    1.528e+003    
4.499    3.889    4.000       0.085         1.940     0.610    0.987      1.640e-001    0.074    2.960e+004    1.586e+003    
4.499    3.884    4.000       0.085         1.949     0.615    0.987      1.630e-001    0.074    2.654e+004    1.550e+003    
4.499    3.880    4.000       0.085         1.957     0.619    0.987      1.624e-001    0.073    2.975e+004    1.567e+003    
4.499    3.875    4.000       0.085         1.966     0.624    0.987      1.614e-001    0.073    2.875e+004    1.525e+003    
4.499    3.871    4.000       0.085         1.974     0.628    0.986      1.608e-001    0.072    2.843e+004    1.513e+003    
4.499    3.866    4.000       0.085         1.982     0.633    0.986      1.598e-001    0.071    2.581e+004    1.452e+003    
4.499    3.862    4.000       0.085         1.991     0.637    0.986      1.593e-001    0.071    2.788e+004    1.476e+003    
4.499    3.858    4.000       0.085         1.999     0.641    0.986      1.587e-001    0.070    2.498e+004    1.460e+003    
4.499    3.853    4.000       0.084         2.008     0.646    0.986      1.577e-001    0.070    2.676e+004    1.467e+003    
4.499    3.849    4.000       0.084         2.016     0.650    0.986      1.572e-001    0.069    2.931e+004    1.525e+003    
4.499    3.844    4.000       0.084         2.025     0.655    0.985      1.562e-001    0.069    2.620e+004    1.446e+003    
4.499    3.840    4.000       0.084         2.033     0.659    0.985      1.557e-001    0.068    2.541e+004    1.441e+003    
4.499    3.835    4.000       0.084         2.042     0.664    0.985      1.547e-001    0.067    2.795e+004    1.484e+003    
4.499    3.831    4.000       0.084         2.051     0.668    0.985      1.542e-001    0.067    2.545e+004    1.454e+003    
4.499    3.826    4.000       0.084         2.059     0.673    0.985      1.532e-001    0.066    2.965e+004    1.525e+003    
4.499    3.822    4.000       0.084         2.065     0.677    0.984      1.523e-001    0.066    2.844e+004    1.487e+003    
4.499    3.818    4.000       0.084         2.074     0.681    0.984      1.518e-001    0.065    2.981e+004    1.519e+003    
4.499    3.813    4.000       0.084         2.082     0.686    0.984      1.509e-001    0.065    2.764e+004    1.493e+003    
4.499    3.809    4.000       0.083         2.091     0.690    0.984      1.504e-001    0.064    2.854e+004    1.519e+003    
4.499    3.804    4.000       0.083         2.100     0.695    0.984      1.495e-001    0.064    2.795e+004    1.487e+003    
4.499    3.800    4.000       0.083         2.108     0.699    0.984      1.490e-001    0.063    2.974e+004    1.549e+003    
4.499    3.795    4.000       0.083         2.117     0.704    0.983      1.481e-001    0.063    3.326e+004    1.610e+003    
4.499    3.791    4.000       0.083         2.126     0.708    0.983      1.476e-001    0.063    3.110e+004    1.560e+003    
4.499    3.786    4.000       0.083         2.135     0.713    0.983      1.467e-001    0.062    2.974e+004    1.577e+003    
4.499    3.782    4.000       0.083         2.143     0.717    0.983      1.462e-001    0.062    2.912e+004    1.525e+003    
4.499    3.778    4.000       0.083         2.152     0.721    0.983      1.457e-001    0.061    3.331e+004    1.613e+003    
4.499    3.773    4.000       0.083         2.158     0.726    0.982      1.445e-001    0.061    3.320e+004    1.611e+003    
4.499    3.769    4.000       0.083         2.167     0.730    0.982      1.440e-001    0.060    2.861e+004    1.548e+003    
4.499    3.764    4.000       0.083         2.176     0.735    0.982      1.432e-001    0.060    3.363e+004    1.662e+003    
4.499    3.760    4.000       0.082         2.184     0.739    0.982      1.427e-001    0.059    3.178e+004    1.594e+003    
4.499    3.755    4.000       0.082         2.193     0.744    0.982      1.419e-001    0.059    3.552e+004    1.684e+003    
4.499    3.751    4.000       0.082         2.202     0.748    0.981      1.414e-001    0.059    3.227e+004    1.645e+003    
4.499    3.746    4.000       0.082         2.211     0.753    0.981      1.406e-001    0.058    3.523e+004    1.680e+003    
4.499    3.742    4.000       0.082         2.217     0.757    0.981      1.398e-001    0.058    3.579e+004    1.684e+003    
4.499    3.738    4.000       0.082         2.226     0.761    0.981      1.393e-001    0.057    3.636e+004    1.697e+003    
4.499    3.733    4.000       0.082         2.235     0.766    0.980      1.385e-001    0.057    3.498e+004    1.742e+003    
4.499    3.729    4.000       0.082         2.244     0.770    0.980      1.381e-001    0.057    3.746e+004    1.722e+003    
4.499    3.724    4.000       0.082         2.253     0.775    0.980      1.373e-001    0.056    3.319e+004    1.739e+003    
4.499    3.720    4.000       0.082         2.262     0.779    0.980      1.368e-001    0.056    3.209e+004    1.752e+003    
4.499    3.715    4.000       0.081         2.268     0.784    0.980      1.358e-001    0.055    3.710e+004    1.788e+003    
4.499    3.711    4.000       0.081         2.277     0.788    0.979      1.353e-001    0.055    3.362e+004    1.839e+003    
4.499    3.706    4.000       0.081         2.286     0.793    0.979      1.346e-001    0.055    3.690e+004    1.764e+003    
4.499    3.702    4.000       0.081         2.295     0.797    0.979      1.341e-001    0.054    3.438e+004    1.753e+003    
4.499    3.697    4.000       0.081         2.301     0.802    0.979      1.331e-001    0.054    3.408e+004    1.761e+003    
4.499    3.693    4.000       0.081         2.310     0.806    0.978      1.327e-001    0.054    3.201e+004    1.685e+003    
4.499    3.689    4.000       0.081         2.320     0.810    0.978      1.322e-001    0.053    3.250e+004    1.713e+003    
4.499    3.684    4.000       0.081         2.329     0.815    0.978      1.315e-001    0.053    3.317e+004    1.716e+003    
4.499    3.680    4.000       0.081         2.338     0.819    0.978      1.311e-001    0.052    3.159e+004    1.664e+003    
4.499    3.675    4.000       0.081         2.344     0.824    0.978      1.301e-001    0.052    3.332e+004    1.695e+003    
4.499    3.671    4.000       0.080         2.353     0.828    0.977      1.297e-001    0.052    3.099e+004    1.638e+003    
4.499    3.666    4.000       0.080         2.362     0.833    0.977      1.290e-001    0.051    3.117e+004    1.648e+003    
4.499    3.662    4.000       0.080         2.372     0.837    0.977      1.286e-001    0.051    2.816e+004    1.596e+003    
4.499    3.657    4.000       0.080         2.378     0.842    0.977      1.276e-001    0.051    2.869e+004    1.581e+003    
4.499    3.653    4.000       0.080         2.387     0.846    0.976      1.272e-001    0.050    2.712e+004    1.560e+003    
4.499    3.649    4.000       0.080         2.396     0.850    0.976      1.268e-001    0.050    2.674e+004    1.535e+003    
4.499    3.644    4.000       0.080         2.402     0.855    0.976      1.259e-001    0.050    2.718e+004    1.549e+003    
4.499    3.640    4.000       0.080         2.412     0.859    0.976      1.255e-001    0.049    2.727e+004    1.543e+003    
4.499    3.635    4.000       0.080         2.421     0.864    0.975      1.248e-001    0.049    2.336e+004    1.461e+003    
4.499    3.631    4.000       0.080         2.430     0.868    0.975      1.244e-001    0.049    2.551e+004    1.500e+003    
4.499    3.626    4.000       0.079         2.437     0.873    0.975      1.235e-001    0.049    2.661e+004    1.500e+003    
4.499    3.622    4.000       0.079         2.446     0.877    0.975      1.231e-001    0.048    2.482e+004    1.482e+003    
4.499    3.617    4.000       0.079         2.455     0.882    0.974      1.225e-001    0.048    2.443e+004    1.445e+003    
4.499    3.613    4.000       0.079         2.462     0.886    0.974      1.219e-001    0.048    2.529e+004    1.427e+003    
4.499    3.609    4.000       0.079         2.471     0.890    0.974      1.215e-001    0.047    2.376e+004    1.404e+003    
4.499    3.604    4.000       0.079         2.481     0.895    0.974      1.209e-001    0.047    2.622e+004    1.422e+003    
4.499    3.600    4.000       0.079         2.487     0.899    0.973      1.203e-001    0.047    2.212e+004    1.339e+003    
4.499    3.595    4.000       0.079         2.496     0.904    0.973      1.197e-001    0.046    2.126e+004    1.322e+003    
4.499    3.591    4.000       0.079         2.506     0.908    0.973      1.193e-001    0.046    2.175e+004    1.306e+003    
4.499    3.586    4.000       0.079         2.512     0.913    0.972      1.185e-001    0.046    2.146e+004    1.305e+003    
4.499    3.582    4.000       0.079         2.522     0.917    0.972      1.181e-001    0.046    2.397e+004    1.326e+003    
4.499    3.577    4.000       0.078         2.531     0.922    0.972      1.175e-001    0.045    2.123e+004    1.270e+003    
4.499    3.573    4.000       0.078         2.538     0.926    0.972      1.169e-001    0.045    1.955e+004    1.247e+003    
4.499    3.569    4.000       0.078         2.547     0.930    0.971      1.166e-001    0.045    2.281e+004    1.274e+003    
4.499    3.564    4.000       0.078         2.557     0.935    0.971      1.160e-001    0.045    2.322e+004    1.286e+003    
4.499    3.560    4.000       0.078         2.563     0.939    0.971      1.155e-001    0.044    2.215e+004    1.257e+003    
4.499    3.555    4.000       0.078         2.573     0.944    0.971      1.149e-001    0.044    2.223e+004    1.237e+003    
4.499    3.551    4.000       0.078         2.582     0.948    0.970      1.145e-001    0.044    2.125e+004    1.226e+003    
4.499    3.546    4.000       0.078         2.589     0.953    0.970      1.138e-001    0.043    2.251e+004    1.232e+003    
4.499    3.542    4.000       0.078         2.599     0.957    0.970      1.134e-001    0.043    2.209e+004    1.214e+003    
4.499    3.537    4.000       0.078         2.608     0.962    0.969      1.129e-001    0.043    2.130e+004    1.206e+003    
4.499    3.533    4.000       0.077         2.615     0.966    0.969      1.123e-001    0.043    2.255e+004    1.210e+003    
4.499    3.529    4.000       0.077         2.624     0.970    0.969      1.120e-001    0.042    2.201e+004    1.210e+003    
4.499    3.524    4.000       0.077         2.631     0.975    0.969      1.113e-001    0.042    2.108e+004    1.187e+003    
4.499    3.520    4.000       0.077         2.641     0.979    0.968      1.110e-001    0.042    2.064e+004    1.173e+003    
4.499    3.515    4.000       0.077         2.650     0.984    0.968      1.104e-001    0.042    2.077e+004    1.180e+003    
4.499    3.511    4.000       0.077         2.657     0.988    0.968      1.099e-001    0.042    2.159e+004    1.191e+003    
4.499    3.506    4.000       0.077         2.667     0.993    0.967      1.094e-001    0.041    2.319e+004    1.204e+003    
4.499    3.502    4.000       0.077         2.673     0.997    0.967      1.089e-001    0.041    2.118e+004    1.190e+003    
4.499    3.497    4.000       0.077         2.683     1.002    0.967      1.084e-001    0.041    2.027e+004    1.184e+003    
4.499    3.493    4.000       0.077         2.690     1.006    0.966      1.079e-001    0.041    2.293e+004    1.208e+003    
4.499    3.489    4.000       0.076         2.699     1.010    0.966      1.076e-001    0.040    2.131e+004    1.196e+003    
4.499    3.484    4.000       0.076         2.709     1.015    0.966      1.071e-001    0.040    2.084e+004    1.186e+003    
4.499    3.480    4.000       0.076         2.716     1.019    0.966      1.066e-001    0.040    2.006e+004    1.188e+003    
4.499    3.475    4.000       0.076         2.726     1.024    0.965      1.061e-001    0.040    2.308e+004    1.222e+003    
4.499    3.471    4.000       0.076         2.732     1.028    0.965      1.056e-001    0.039    2.258e+004    1.210e+003    
4.499    3.466    4.000       0.076         2.742     1.033    0.965      1.051e-001    0.039    2.088e+004    1.200e+003    
4.499    3.462    4.000       0.076         2.749     1.037    0.964      1.046e-001    0.039    2.228e+004    1.216e+003    
4.499    3.457    4.000       0.076         2.759     1.042    0.964      1.042e-001    0.039    2.186e+004    1.201e+003    
4.499    3.453    4.000       0.076         2.766     1.046    0.964      1.037e-001    0.039    2.198e+004    1.208e+003    
4.499    3.448    4.000       0.076         2.776     1.051    0.963      1.032e-001    0.038    2.069e+004    1.200e+003    
4.499    3.444    4.000       0.075         2.786     1.055    0.963      1.029e-001    0.038    2.138e+004    1.199e+003    
4.499    3.440    4.000       0.075         2.792     1.059    0.963      1.025e-001    0.038    2.244e+004    1.217e+003    
4.499    3.435    4.000       0.075         2.802     1.064    0.962      1.020e-001    0.038    2.020e+004    1.192e+003    
4.499    3.431    4.000       0.075         2.809     1.068    0.962      1.016e-001    0.038    2.181e+004    1.201e+003    
4.499    3.426    4.000       0.075         2.819     1.073    0.962      1.011e-001    0.037    2.150e+004    1.201e+003    
4.499    3.422    4.000       0.075         2.826     1.077    0.961      1.007e-001    0.037    2.188e+004    1.199e+003    
4.499    3.417    4.000       0.075         2.836     1.082    0.961      1.002e-001    0.037    2.033e+004    1.188e+003    
4.499    3.413    4.000       0.075         2.843     1.086    0.961      9.981e-002    0.037    2.005e+004    1.177e+003    
4.499    3.408    4.000       0.075         2.853     1.091    0.960      9.936e-002    0.036    2.028e+004    1.171e+003    
4.499    3.404    4.000       0.075         2.859     1.095    0.960      9.894e-002    0.036    2.129e+004    1.189e+003    
4.499    3.400    4.000       0.075         2.870     1.099    0.960      9.869e-002    0.036    2.081e+004    1.177e+003    
4.499    3.395    4.000       0.074         2.876     1.104    0.959      9.809e-002    0.036    1.804e+004    1.133e+003    
4.499    3.391    4.000       0.074         2.887     1.108    0.959      9.784e-002    0.036    1.931e+004    1.153e+003    
4.499    3.386    4.000       0.074         2.893     1.113    0.959      9.725e-002    0.036    1.975e+004    1.152e+003    
4.499    3.382    4.000       0.074         2.904     1.117    0.958      9.701e-002    0.035    2.014e+004    1.147e+003    
4.499    3.377    4.000       0.074         2.910     1.122    0.958      9.642e-002    0.035    1.818e+004    1.126e+003    
4.499    3.373    4.000       0.074         2.921     1.126    0.958      9.618e-002    0.035    1.816e+004    1.120e+003    
4.499    3.368    4.000       0.074         2.928     1.131    0.957      9.560e-002    0.035    1.741e+004    1.100e+003    
4.499    3.364    4.000       0.074         2.934     1.135    0.957      9.521e-002    0.035    1.801e+004    1.110e+003    
4.499    3.360    4.000       0.074         2.945     1.139    0.957      9.498e-002    0.034    1.735e+004    1.097e+003    
4.499    3.355    4.000       0.074         2.952     1.144    0.956      9.441e-002    0.034    1.754e+004    1.091e+003    
4.499    3.351    4.000       0.073         2.962     1.148    0.956      9.418e-002    0.034    1.768e+004    1.097e+003    
4.499    3.346    4.000       0.073         2.969     1.153    0.955      9.363e-002    0.034    1.765e+004    1.093e+003    
4.499    3.342    4.000       0.073         2.979     1.157    0.955      9.340e-002    0.034    1.666e+004    1.069e+003    
4.499    3.337    4.000       0.073         2.986     1.162    0.955      9.286e-002    0.034    1.698e+004    1.076e+003    
4.499    3.333    4.000       0.073         2.996     1.166    0.954      9.263e-002    0.033    1.662e+004    1.066e+003    
4.499    3.328    4.000       0.073         3.003     1.171    0.954      9.209e-002    0.033    1.658e+004    1.056e+003    
4.499    3.324    4.000       0.073         3.010     1.175    0.954      9.173e-002    0.033    1.402e+004    1.026e+003    
4.499    3.320    4.000       0.073         3.021     1.179    0.953      9.151e-002    0.033    1.499e+004    1.035e+003    
4.499    3.315    4.000       0.073         3.028     1.184    0.953      9.098e-002    0.033    1.503e+004    1.026e+003    
4.499    3.311    4.000       0.073         3.038     1.188    0.952      9.077e-002    0.033    1.397e+004    1.015e+003    
4.499    3.306    4.000       0.072         3.045     1.193    0.952      9.025e-002    0.032    1.466e+004    1.021e+003    
4.499    3.302    4.000       0.072         3.056     1.197    0.952      9.004e-002    0.032    1.435e+004    1.008e+003    
4.499    3.297    4.000       0.072         3.063     1.202    0.951      8.952e-002    0.032    1.484e+004    1.018e+003    
4.499    3.293    4.000       0.072         3.070     1.206    0.951      8.917e-002    0.032    1.576e+004    1.026e+003    
4.499    3.288    4.000       0.072         3.080     1.211    0.951      8.881e-002    0.032    1.406e+004    9.974e+002    
4.499    3.284    4.000       0.072         3.087     1.215    0.950      8.847e-002    0.032    1.409e+004    1.002e+003    
4.499    3.280    4.000       0.072         3.098     1.219    0.950      8.826e-002    0.031    1.409e+004    9.982e+002    
4.499    3.275    4.000       0.072         3.105     1.224    0.949      8.777e-002    0.031    1.407e+004    9.913e+002    
4.499    3.271    4.000       0.072         3.112     1.228    0.949      8.743e-002    0.031    1.332e+004    9.862e+002    
4.499    3.266    4.000       0.072         3.122     1.233    0.949      8.708e-002    0.031    1.276e+004    9.750e+002    
4.499    3.262    4.000       0.071         3.129     1.237    0.948      8.675e-002    0.031    1.353e+004    9.798e+002    
4.499    3.257    4.000       0.071         3.140     1.242    0.948      8.640e-002    0.031    1.269e+004    9.741e+002    
4.499    3.253    4.000       0.071         3.147     1.246    0.947      8.607e-002    0.030    1.275e+004    9.709e+002    
4.499    3.248    4.000       0.071         3.154     1.251    0.947      8.560e-002    0.030    1.417e+004    9.903e+002    
4.499    3.244    4.000       0.071         3.165     1.255    0.947      8.541e-002    0.030    1.256e+004    9.683e+002    
4.499    3.240    4.000       0.071         3.172     1.259    0.946      8.509e-002    0.030    1.373e+004    9.995e+002    
4.499    3.235    4.000       0.071         3.179     1.264    0.946      8.463e-002    0.030    1.171e+004    9.730e+002    
4.499    3.231    4.000       0.071         3.190     1.268    0.945      8.444e-002    0.030    1.314e+004    9.855e+002    
4.499    3.226    4.000       0.071         3.197     1.273    0.945      8.398e-002    0.030    1.384e+004    9.991e+002    
4.499    3.222    4.000       0.071         3.208     1.277    0.945      8.380e-002    0.029    1.296e+004    9.863e+002    
4.499    3.217    4.000       0.071         3.215     1.282    0.944      8.335e-002    0.029    1.270e+004    9.769e+002    
4.499    3.213    4.000       0.070         3.222     1.286    0.944      8.304e-002    0.029    1.231e+004    9.770e+002    
4.499    3.208    4.000       0.070         3.233     1.291    0.943      8.272e-002    0.029    1.166e+004    9.673e+002    
4.499    3.204    4.000       0.070         3.240     1.295    0.943      8.242e-002    0.029    1.225e+004    9.708e+002    
4.499    3.199    4.000       0.070         3.247     1.300    0.942      8.198e-002    0.029    1.242e+004    9.794e+002    
4.499    3.195    4.000       0.070         3.258     1.304    0.942      8.180e-002    0.029    1.284e+004    9.823e+002    
4.499    3.191    4.000       0.070         3.265     1.308    0.942      8.151e-002    0.028    1.295e+004    9.797e+002    
4.499    3.186    4.000       0.070         3.272     1.313    0.941      8.108e-002    0.028    1.280e+004    9.853e+002    
4.499    3.182    4.000       0.070         3.283     1.317    0.941      8.091e-002    0.028    1.259e+004    9.777e+002    
4.499    3.177    4.000       0.070         3.291     1.322    0.940      8.048e-002    0.028    1.275e+004    9.817e+002    
4.499    3.173    4.000       0.070         3.298     1.326    0.940      8.019e-002    0.028    1.023e+004    9.401e+002    
4.499    3.168    4.000       0.069         3.309     1.331    0.939      7.990e-002    0.028    1.011e+004    9.425e+002    
4.499    3.164    4.000       0.069         3.316     1.335    0.939      7.961e-002    0.028    1.310e+004    9.845e+002    
4.499    3.159    4.000       0.069         3.323     1.340    0.938      7.920e-002    0.028    1.166e+004    9.597e+002    
4.499    3.155    4.000       0.069         3.334     1.344    0.938      7.903e-002    0.027    1.126e+004    9.602e+002    
4.499    3.151    4.000       0.069         3.342     1.348    0.938      7.876e-002    0.027    1.163e+004    9.644e+002    
4.499    3.146    4.000       0.069         3.349     1.353    0.937      7.835e-002    0.027    1.177e+004    9.522e+002    
4.499    3.142    4.000       0.069         3.356     1.357    0.937      7.808e-002    0.027    1.268e+004    9.590e+002    
4.499    3.137    4.000       0.069         3.367     1.362    0.936      7.779e-002    0.027    1.205e+004    9.550e+002    
4.499    3.133    4.000       0.069         3.375     1.366    0.936      7.752e-002    0.027    1.156e+004    9.495e+002    
4.499    3.128    4.000       0.069         3.382     1.371    0.935      7.713e-002    0.027    1.076e+004    9.345e+002    
4.499    3.124    4.000       0.068         3.393     1.375    0.935      7.697e-002    0.027    1.232e+004    9.609e+002    
4.499    3.119    4.000       0.068         3.400     1.380    0.934      7.658e-002    0.026    1.210e+004    9.562e+002    
4.499    3.115    4.000       0.068         3.408     1.384    0.934      7.632e-002    0.026    1.201e+004    9.513e+002    
4.499    3.111    4.000       0.068         3.419     1.388    0.933      7.617e-002    0.026    1.110e+004    9.454e+002    
4.499    3.106    4.000       0.068         3.426     1.393    0.933      7.579e-002    0.026    1.231e+004    9.691e+002    
4.499    3.102    4.000       0.068         3.434     1.397    0.932      7.553e-002    0.026    1.269e+004    9.806e+002    
4.499    3.097    4.000       0.068         3.441     1.402    0.932      7.515e-002    0.026    1.189e+004    9.617e+002    
4.499    3.093    4.000       0.068         3.452     1.406    0.931      7.500e-002    0.026    1.170e+004    9.586e+002    
4.499    3.088    4.000       0.068         3.460     1.411    0.931      7.463e-002    0.026    1.088e+004    9.550e+002    
4.499    3.084    4.000       0.068         3.467     1.415    0.931      7.438e-002    0.025    1.093e+004    9.564e+002    
4.499    3.079    4.000       0.067         3.474     1.420    0.930      7.401e-002    0.025    1.172e+004    9.584e+002    
4.499    3.075    4.000       0.067         3.486     1.424    0.930      7.387e-002    0.025    1.180e+004    9.616e+002    
4.499    3.071    4.000       0.067         3.493     1.428    0.929      7.362e-002    0.025    1.203e+004    9.711e+002    
4.499    3.066    4.000       0.067         3.501     1.433    0.929      7.327e-002    0.025    1.105e+004    9.504e+002    
4.499    3.062    4.000       0.067         3.508     1.437    0.928      7.302e-002    0.025    1.079e+004    9.455e+002    
4.499    3.057    4.000       0.067         3.519     1.442    0.928      7.277e-002    0.025    1.129e+004    9.607e+002    
4.499    3.053    4.000       0.067         3.527     1.446    0.927      7.253e-002    0.025    1.063e+004    9.501e+002    
4.499    3.048    4.000       0.067         3.534     1.451    0.927      7.218e-002    0.025    1.207e+004    9.620e+002    
4.499    3.044    4.000       0.067         3.542     1.455    0.926      7.194e-002    0.024    1.182e+004    9.584e+002    
4.499    3.039    4.000       0.067         3.553     1.460    0.926      7.170e-002    0.024    1.093e+004    9.527e+002    
4.499    3.035    4.000       0.067         3.561     1.464    0.925      7.146e-002    0.024    1.130e+004    9.579e+002    
4.499    3.031    4.000       0.066         3.568     1.468    0.925      7.123e-002    0.024    1.143e+004    9.507e+002    
4.499    3.026    4.000       0.066         3.576     1.473    0.924      7.089e-002    0.024    9.784e+003    9.285e+002    
4.499    3.022    4.000       0.066         3.587     1.477    0.924      7.076e-002    0.024    1.023e+004    9.404e+002    
4.499    3.017    4.000       0.066         3.595     1.482    0.923      7.043e-002    0.024    1.023e+004    9.253e+002    
4.499    3.013    4.000       0.066         3.602     1.486    0.923      7.020e-002    0.024    1.076e+004    9.286e+002    
4.499    3.008    4.000       0.066         3.610     1.491    0.922      6.987e-002    0.024    1.113e+004    9.395e+002    
4.499    3.004    4.000       0.066         3.621     1.495    0.921      6.974e-002    0.023    9.629e+003    9.157e+002    
4.499    2.999    4.000       0.066         3.629     1.500    0.921      6.942e-002    0.023    1.143e+004    9.412e+002    
4.499    2.995    4.000       0.066         3.637     1.504    0.920      6.920e-002    0.023    1.088e+004    9.298e+002    
4.499    2.991    4.000       0.066         3.644     1.508    0.920      6.898e-002    0.023    1.052e+004    9.305e+002    
4.499    2.986    4.000       0.065         3.652     1.513    0.919      6.866e-002    0.023    1.191e+004    9.467e+002    
4.499    2.982    4.000       0.065         3.663     1.517    0.919      6.853e-002    0.023    1.145e+004    9.405e+002    
4.499    2.977    4.000       0.065         3.671     1.522    0.918      6.822e-002    0.023    9.531e+003    9.096e+002    
4.499    2.973    4.000       0.065         3.679     1.526    0.918      6.800e-002    0.023    1.045e+004    9.272e+002    
4.499    2.968    4.000       0.065         3.686     1.531    0.917      6.769e-002    0.023    1.120e+004    9.350e+002    
4.499    2.964    4.000       0.065         3.694     1.535    0.917      6.748e-002    0.023    9.731e+003    9.148e+002    
4.499    2.959    4.000       0.065         3.706     1.540    0.916      6.726e-002    0.022    9.195e+003    9.032e+002    
4.499    2.955    4.000       0.065         3.713     1.544    0.916      6.705e-002    0.022    9.921e+003    9.182e+002    
4.499    2.950    4.000       0.065         3.721     1.549    0.915      6.675e-002    0.022    1.074e+004    9.271e+002    
4.499    2.946    4.000       0.065         3.729     1.553    0.914      6.654e-002    0.022    9.546e+003    9.105e+002    
4.499    2.942    4.000       0.064         3.736     1.557    0.914      6.634e-002    0.022    1.044e+004    9.188e+002    
4.499    2.937    4.000       0.064         3.748     1.562    0.913      6.613e-002    0.022    9.048e+003    9.042e+002    
4.499    2.933    4.000       0.064         3.756     1.566    0.913      6.593e-002    0.022    9.206e+003    9.032e+002    
4.499    2.928    4.000       0.064         3.764     1.571    0.912      6.563e-002    0.022    9.766e+003    9.108e+002    
4.499    2.924    4.000       0.064         3.771     1.575    0.912      6.543e-002    0.022    9.557e+003    9.043e+002    
4.499    2.919    4.000       0.064         3.779     1.580    0.911      6.514e-002    0.022    1.012e+004    9.177e+002    
4.499    2.915    4.000       0.064         3.787     1.584    0.911      6.494e-002    0.021    9.742e+003    9.082e+002    
4.499    2.910    4.000       0.064         3.799     1.589    0.910      6.474e-002    0.021    1.096e+004    9.247e+002    
4.499    2.906    4.000       0.064         3.806     1.593    0.909      6.455e-002    0.021    1.039e+004    9.181e+002    
4.499    2.902    4.000       0.064         3.814     1.597    0.909      6.435e-002    0.021    1.033e+004    9.106e+002    
4.499    2.897    4.000       0.063         3.822     1.602    0.908      6.407e-002    0.021    9.756e+003    9.051e+002    
4.499    2.893    4.000       0.063         3.830     1.606    0.908      6.388e-002    0.021    9.398e+003    8.979e+002    
4.499    2.888    4.000       0.063         3.838     1.611    0.907      6.360e-002    0.021    1.022e+004    9.108e+002    
4.499    2.884    4.000       0.063         3.849     1.615    0.907      6.349e-002    0.021    9.144e+003    8.910e+002    
4.499    2.879    4.000       0.063         3.857     1.620    0.906      6.322e-002    0.021    8.761e+003    8.893e+002    
4.499    2.875    4.000       0.063         3.865     1.624    0.905      6.303e-002    0.021    9.159e+003    8.925e+002    
4.499    2.870    4.000       0.063         3.873     1.629    0.905      6.276e-002    0.021    8.623e+003    8.845e+002    
4.499    2.866    4.000       0.063         3.881     1.633    0.904      6.257e-002    0.020    8.768e+003    8.826e+002    
4.499    2.862    4.000       0.063         3.889     1.637    0.904      6.239e-002    0.020    9.358e+003    8.959e+002    
4.499    2.857    4.000       0.063         3.897     1.642    0.903      6.212e-002    0.020    9.657e+003    8.970e+002    
4.499    2.853    4.000       0.063         3.909     1.646    0.902      6.202e-002    0.020    8.901e+003    8.855e+002    
4.499    2.848    4.000       0.062         3.916     1.651    0.902      6.176e-002    0.020    9.153e+003    8.903e+002    
4.499    2.844    4.000       0.062         3.924     1.655    0.901      6.158e-002    0.020    9.822e+003    8.949e+002    
4.499    2.839    4.000       0.062         3.932     1.660    0.901      6.132e-002    0.020    9.712e+003    8.972e+002    
4.499    2.835    4.000       0.062         3.940     1.664    0.900      6.114e-002    0.020    8.325e+003    8.758e+002    
4.499    2.830    4.000       0.062         3.948     1.669    0.899      6.088e-002    0.020    8.531e+003    8.791e+002    
4.499    2.826    4.000       0.062         3.956     1.673    0.899      6.071e-002    0.020    8.802e+003    8.839e+002    
4.499    2.822    4.000       0.062         3.964     1.677    0.898      6.053e-002    0.020    8.615e+003    8.756e+002    
4.499    2.817    4.000       0.062         3.976     1.682    0.898      6.036e-002    0.020    1.058e+004    9.065e+002    
4.499    2.813    4.000       0.062         3.984     1.686    0.897      6.019e-002    0.019    8.609e+003    8.781e+002    
4.499    2.808    4.000       0.062         3.992     1.691    0.896      5.993e-002    0.019    8.376e+003    8.754e+002    
4.499    2.804    4.000       0.061         4.000     1.695    0.896      5.977e-002    0.019    9.966e+003    9.028e+002    
